# File created by shivutils (I.Shivvers)
# wl(A)   flm    er(optional)
3442.00   -0.53388333   0.14009595
3444.00   0.19025032   0.14784895
3446.00   1.10953641   0.16548887
3448.00   0.16362005   0.16386361
3450.00   0.49561030   0.18082507
3452.00   0.43923819   0.19193654
3454.00   -0.10547350   0.19515721
3456.00   -0.08610149   0.18624301
3458.00   0.11503355   0.18297029
3460.00   0.43637663   0.18475592
3462.00   0.35717639   0.17887588
3464.00   0.56340271   0.17556356
3466.00   0.44807711   0.17688820
3468.00   0.63301384   0.17944078
3470.00   0.61207712   0.17990032
3472.00   0.34057048   0.17449868
3474.00   0.70763397   0.17276229
3476.00   0.04052988   0.17421323
3478.00   0.81097800   0.18570493
3480.00   0.20626485   0.19510791
3482.00   0.01068217   0.20142649
3484.00   0.20770997   0.20315506
3486.00   0.39696082   0.19733837
3488.00   0.18439502   0.19346638
3490.00   0.75490320   0.19461031
3492.00   -0.07878945   0.18831563
3494.00   0.80676889   0.18758044
3496.00   0.29225844   0.18419792
3498.00   0.51922339   0.18524848
3500.00   0.50856179   0.18398535
3502.00   0.27780175   0.18246439
3504.00   0.38858530   0.18142022
3506.00   0.19434363   0.17793806
3508.00   0.19082685   0.17797796
3510.00   0.54628885   0.18435749
3512.00   0.28162864   0.18287517
3514.00   0.45274672   0.17799865
3516.00   0.79139161   0.17747204
3518.00   0.59140283   0.17425372
3520.00   0.09838798   0.17104799
3522.00   0.28449315   0.17063172
3524.00   0.54761940   0.17118502
3526.00   0.68179339   0.17156468
3528.00   0.79518181   0.17092156
3530.00   0.17855813   0.17095864
3532.00   0.86522633   0.17139515
3534.00   0.31155303   0.16836752
3536.00   0.10565839   0.17290899
3538.00   0.47241488   0.17527492
3540.00   0.21968590   0.18147747
3542.00   -0.00168419   0.19260123
3544.00   0.33983469   0.19692716
3546.00   0.35628086   0.19501334
3548.00   0.53456146   0.19190520
3550.00   0.16886237   0.18642063
3552.00   0.38145345   0.18789190
3554.00   0.44751176   0.19039108
3556.00   0.03940023   0.18838403
3558.00   -0.20829503   0.18886569
3560.00   0.03017013   0.18457650
3562.00   0.36091396   0.17366169
3564.00   0.50927746   0.17296632
3566.00   0.36469558   0.17405981
3568.00   0.17900248   0.16826312
3570.00   0.27365449   0.16473748
3572.00   0.54353565   0.16940767
3574.00   0.78671253   0.16964751
3576.00   0.37414894   0.16185029
3578.00   0.55754375   0.15868528
3580.00   1.07732737   0.15773700
3582.00   0.74027687   0.15266897
3584.00   0.12561804   0.14861551
3586.00   0.70705289   0.14261472
3588.00   0.67120880   0.14113526
3590.00   0.49524266   0.14658490
3592.00   0.82807910   0.15005693
3594.00   0.73686939   0.14393605
3596.00   0.22378573   0.14109391
3598.00   0.08120210   0.13813117
3600.00   0.69498163   0.13963610
3602.00   0.52091569   0.13657579
3604.00   0.71439093   0.13780950
3606.00   0.60747349   0.13246860
3608.00   0.51480228   0.13292733
3610.00   0.38927278   0.13274397
3612.00   0.71228617   0.13952616
3614.00   0.38044438   0.14484441
3616.00   0.18336187   0.14738531
3618.00   0.26523158   0.14256954
3620.00   0.65304464   0.13686478
3622.00   0.40549821   0.13582894
3624.00   0.66693974   0.13335237
3626.00   0.64436984   0.13295378
3628.00   0.64611614   0.13386747
3630.00   0.01452549   0.13849320
3632.00   0.02313221   0.14223024
3634.00   0.56099629   0.14036894
3636.00   0.68692005   0.13861781
3638.00   0.13119642   0.13520186
3640.00   0.45550966   0.13992177
3642.00   0.80855298   0.14383024
3644.00   0.49773642   0.14518838
3646.00   0.72848159   0.14668532
3648.00   0.25428492   0.18031073
3650.00   0.22234948   0.21945432
3652.00   0.67792523   0.21071817
3654.00   0.60476458   0.18372899
3656.00   0.31036457   0.16920294
3658.00   0.10864314   0.14235292
3660.00   0.56298202   0.13850202
3662.00   0.07809666   0.15515076
3664.00   0.13324295   0.15982269
3666.00   0.46273708   0.13396482
3668.00   0.52361465   0.11979645
3670.00   0.51963979   0.11580710
3672.00   0.44033724   0.11264613
3674.00   0.64506549   0.11241812
3676.00   0.53239477   0.11085430
3678.00   0.31824070   0.10713181
3680.00   0.25164589   0.10685569
3682.00   0.54423028   0.10653261
3684.00   0.15067309   0.10260304
3686.00   0.36374742   0.10270485
3688.00   0.40992802   0.10424131
3690.00   0.19549415   0.10133262
3692.00   0.33284807   0.10684454
3694.00   0.30920216   0.10477966
3696.00   0.28376278   0.10342716
3698.00   0.49847808   0.10775245
3700.00   0.92477453   0.11316559
3702.00   0.25385258   0.10975691
3704.00   0.18377040   0.10412134
3706.00   0.25459960   0.10469620
3708.00   0.51155812   0.10435706
3710.00   0.11840556   0.10254668
3712.00   0.20619157   0.10144282
3714.00   0.54912257   0.10150715
3716.00   0.61255795   0.10103853
3718.00   0.57826209   0.09886622
3720.00   0.65814531   0.09806031
3722.00   0.74715501   0.09768787
3724.00   0.63188636   0.09956247
3726.00   0.54736674   0.10427190
3728.00   0.47707045   0.10765576
3730.00   0.40016523   0.10461076
3732.00   0.63327199   0.10200714
3734.00   0.50735921   0.09909525
3736.00   0.19227974   0.10055689
3738.00   0.60025901   0.10344405
3740.00   0.52094406   0.10627040
3742.00   0.38034025   0.10293635
3744.00   0.63896042   0.09877854
3746.00   0.63399744   0.09705368
3748.00   0.57836109   0.09617492
3750.00   0.41204652   0.09276772
3752.00   0.57426518   0.09356990
3754.00   0.63483405   0.09402189
3756.00   0.54165655   0.09225856
3758.00   0.64702410   0.09181884
3760.00   0.54837728   0.09049085
3762.00   0.40190715   0.08751197
3764.00   0.60555291   0.08990062
3766.00   0.50245965   0.08712844
3768.00   0.56097472   0.08511531
3770.00   0.60896891   0.08581420
3772.00   0.56318641   0.08745876
3774.00   0.56445611   0.08711422
3776.00   0.35332444   0.08386807
3778.00   0.31465343   0.08333837
3780.00   0.40687332   0.08273610
3782.00   0.54186368   0.08337001
3784.00   0.36936563   0.08137042
3786.00   0.49936607   0.08046751
3788.00   0.45830363   0.07986413
3790.00   0.41001660   0.08320925
3792.00   0.43766916   0.08316391
3794.00   0.44998565   0.08219603
3796.00   0.58170342   0.08024900
3798.00   0.35288841   0.07574176
3800.00   0.50661385   0.07964897
3802.00   0.49764273   0.08146437
3804.00   0.67497557   0.08360550
3806.00   0.64028394   0.07897422
3808.00   0.22403589   0.07472498
3810.00   0.12548175   0.07544654
3812.00   0.49563298   0.07833323
3814.00   0.34413454   0.07895082
3816.00   0.49030024   0.07986730
3818.00   0.41425690   0.07966992
3820.00   0.29293689   0.07742222
3822.00   0.24119996   0.07751802
3824.00   0.28341743   0.07628989
3826.00   0.34045619   0.07650005
3828.00   0.42586431   0.08157431
3830.00   0.48204041   0.08680765
3832.00   0.32971808   0.08509981
3834.00   0.61337012   0.08219669
3836.00   0.44615713   0.08015658
3838.00   0.39805815   0.07914823
3840.00   0.39711672   0.07919963
3842.00   0.27082500   0.07759319
3844.00   0.60674471   0.07843402
3846.00   0.34735456   0.07544724
3848.00   0.54259312   0.07628550
3850.00   0.54181778   0.07497212
3852.00   0.44480607   0.07362909
3854.00   0.70771915   0.07444319
3856.00   0.45801327   0.07534287
3858.00   0.34221640   0.07097717
3860.00   0.43416673   0.07289562
3862.00   0.53357351   0.07464109
3864.00   0.35650301   0.07255002
3866.00   0.46525845   0.07198279
3868.00   0.49012271   0.07067883
3870.00   0.10355064   0.06798048
3872.00   0.59620249   0.07177193
3874.00   0.50113380   0.07525746
3876.00   0.32833767   0.07276274
3878.00   0.32636717   0.06980437
3880.00   0.47991934   0.06902722
3882.00   0.45310673   0.06745136
3884.00   0.35980982   0.06688221
3886.00   0.39640719   0.06730378
3888.00   0.52477098   0.06959143
3890.00   0.43612659   0.06648583
3892.00   0.38809201   0.06612754
3894.00   0.41086605   0.06658349
3896.00   0.59844023   0.06891959
3898.00   0.56072754   0.06833158
3900.00   0.46855909   0.06893624
3902.00   0.42306912   0.06956349
3904.00   0.46879318   0.07358689
3906.00   0.64058191   0.08403537
3908.00   0.45639902   0.08946287
3910.00   0.54579657   0.09024868
3912.00   0.47353163   0.08997273
3914.00   0.50057709   0.08534175
3916.00   0.40455374   0.07637133
3918.00   0.45066130   0.07285932
3920.00   0.54519391   0.06962200
3922.00   0.35933930   0.06522165
3924.00   0.39721167   0.06533796
3926.00   0.28693154   0.06453224
3928.00   0.55181611   0.06430066
3930.00   0.68003476   0.06927752
3932.00   0.57882673   0.07194635
3934.00   0.39567891   0.06706387
3936.00   0.59716493   0.06587199
3938.00   0.51196146   0.06264044
3940.00   0.47596890   0.06453893
3942.00   0.44177312   0.06905538
3944.00   0.53445560   0.07110986
3946.00   0.67671889   0.06993178
3948.00   0.79570782   0.06750090
3950.00   0.61427701   0.06529955
3952.00   0.63714373   0.06413679
3954.00   0.72137445   0.06413121
3956.00   0.58796197   0.06182953
3958.00   0.72031653   0.06303156
3960.00   0.62809807   0.06583191
3962.00   0.56925625   0.06708157
3964.00   0.77600586   0.06424481
3966.00   0.55779850   0.05820947
3968.00   0.53040719   0.05786956
3970.00   0.67956471   0.05871605
3972.00   0.64489919   0.06056110
3974.00   0.66888452   0.06064688
3976.00   0.66102582   0.06028138
3978.00   0.73981071   0.06206120
3980.00   0.71713114   0.06178777
3982.00   0.67791349   0.05921620
3984.00   0.75795853   0.06042356
3986.00   0.86862338   0.06178295
3988.00   0.71407515   0.06131866
3990.00   0.85927844   0.06229952
3992.00   0.77959001   0.06120074
3994.00   0.75763971   0.06335206
3996.00   0.94292158   0.06859057
3998.00   0.68724149   0.06667949
4000.00   0.83402884   0.06336058
4002.00   0.85503787   0.06215536
4004.00   0.80437416   0.06090536
4006.00   0.68481082   0.06045408
4008.00   0.81604666   0.06363132
4010.00   0.70819050   0.06389818
4012.00   0.61184227   0.06377668
4014.00   0.61851001   0.06258127
4016.00   0.78012204   0.06375144
4018.00   0.64147365   0.06860677
4020.00   0.54298592   0.07768809
4022.00   0.87512529   0.08302772
4024.00   0.92915958   0.08113282
4026.00   0.78864634   0.07489260
4028.00   0.86390257   0.06983385
4030.00   0.94299912   0.06852452
4032.00   0.82650018   0.06726167
4034.00   0.86124265   0.06614910
4036.00   0.75022548   0.06386578
4038.00   0.68514031   0.06326937
4040.00   0.77980649   0.06379084
4042.00   0.76237959   0.06590499
4044.00   0.53624392   0.10156175
4046.00   0.68173581   0.13658120
4048.00   1.17709243   0.13222849
4050.00   0.72995949   0.09023295
4052.00   0.62567425   0.06958146
4054.00   0.60573322   0.06902176
4056.00   0.77787924   0.06849200
4058.00   0.62024498   0.06358978
4060.00   0.78447491   0.06199585
4062.00   0.63232780   0.06079562
4064.00   0.64874321   0.06044194
4066.00   0.69127232   0.06101900
4068.00   0.66134095   0.06024915
4070.00   0.59593016   0.05838830
4072.00   0.60305899   0.05761040
4074.00   0.57280242   0.05939120
4076.00   0.76415151   0.06924763
4078.00   0.69024557   0.07349155
4080.00   0.90643811   0.07069366
4082.00   0.54382557   0.06663794
4084.00   0.76435536   0.06532247
4086.00   0.52865928   0.06317466
4088.00   0.75357604   0.06105518
4090.00   0.68589085   0.05615199
4092.00   0.60003114   0.05376413
4094.00   0.58561796   0.05403386
4096.00   0.68803096   0.05412322
4098.00   0.80319035   0.05512546
4100.00   0.59238726   0.05396787
4102.00   0.57502681   0.05295107
4104.00   0.70141107   0.05269922
4106.00   0.56820852   0.05164465
4108.00   0.62221813   0.05264274
4110.00   0.65419495   0.05274991
4112.00   0.62217921   0.05190976
4114.00   0.55196226   0.05152762
4116.00   0.64996642   0.05271980
4118.00   0.61442202   0.05129943
4120.00   0.70403719   0.05125352
4122.00   0.88470668   0.05280749
4124.00   0.79009509   0.05233190
4126.00   0.75127655   0.05274925
4128.00   0.70519531   0.05332583
4130.00   0.68179595   0.05375677
4132.00   0.83282232   0.05762749
4134.00   0.72128385   0.05714441
4136.00   0.81249487   0.05586991
4138.00   0.64895105   0.05546839
4140.00   0.64054030   0.05666164
4142.00   0.70549911   0.05534767
4144.00   0.76014686   0.05265845
4146.00   0.63727587   0.05093751
4148.00   0.71292394   0.05210854
4150.00   0.73464859   0.05467301
4152.00   0.79052985   0.05776992
4154.00   0.61310303   0.05642805
4156.00   0.69577855   0.05397606
4158.00   0.71621054   0.05308051
4160.00   0.74426949   0.05328674
4162.00   0.63474303   0.05569333
4164.00   0.79659635   0.05962444
4166.00   0.73764783   0.06060964
4168.00   0.67128950   0.05631668
4170.00   0.67431402   0.05358210
4172.00   0.69458568   0.05256549
4174.00   0.69154823   0.05091306
4176.00   0.77290213   0.05136814
4178.00   0.73481733   0.05188883
4180.00   0.72718710   0.05121272
4182.00   0.66938466   0.04984343
4184.00   0.47901908   0.04865385
4186.00   0.64108747   0.04959880
4188.00   0.66749650   0.04865913
4190.00   0.64432245   0.04910874
4192.00   0.76549202   0.04980979
4194.00   0.64399499   0.04954477
4196.00   0.62185121   0.04843656
4198.00   0.68386912   0.04797950
4200.00   0.74593252   0.04837901
4202.00   0.68119055   0.04766983
4204.00   0.84217858   0.04933923
4206.00   0.79837304   0.04968999
4208.00   0.80613738   0.05067597
4210.00   0.68979424   0.05129930
4212.00   0.72486043   0.05104000
4214.00   0.56081033   0.04951333
4216.00   0.65476876   0.04906228
4218.00   0.69182885   0.04975364
4220.00   0.85174429   0.04971972
4222.00   0.61026478   0.04855943
4224.00   0.92482299   0.04968189
4226.00   0.61745918   0.04866428
4228.00   0.67894512   0.04848867
4230.00   0.66287631   0.04956669
4232.00   0.69983399   0.05009511
4234.00   0.71492112   0.05030477
4236.00   0.68345702   0.05122951
4238.00   0.84187812   0.05212967
4240.00   0.66881901   0.05029340
4242.00   0.77687597   0.04839379
4244.00   0.86556047   0.05351963
4246.00   0.76168352   0.06051701
4248.00   0.79607618   0.06024329
4250.00   0.86971927   0.05364471
4252.00   0.83327216   0.05025503
4254.00   0.66391754   0.04898639
4256.00   0.81690806   0.05056640
4258.00   0.75757456   0.04966717
4260.00   0.71164185   0.04880903
4262.00   0.76282310   0.04824361
4264.00   0.82732654   0.04780253
4266.00   0.83500874   0.04811250
4268.00   0.64124894   0.04770776
4270.00   0.88084024   0.04846711
4272.00   0.78474283   0.04846454
4274.00   0.74840307   0.04821756
4276.00   0.87584513   0.04917996
4278.00   0.82682574   0.04941719
4280.00   0.82123142   0.04930208
4282.00   0.64509153   0.04904748
4284.00   0.77108037   0.04906071
4286.00   0.81632805   0.04932800
4288.00   0.74229938   0.04816072
4290.00   0.69080597   0.04787407
4292.00   0.86219275   0.04895058
4294.00   0.76505190   0.04924809
4296.00   0.79333317   0.04899466
4298.00   0.75282741   0.04898576
4300.00   0.78250462   0.04824404
4302.00   0.66096210   0.04776448
4304.00   0.74568695   0.04822275
4306.00   0.82849920   0.04899595
4308.00   0.83348310   0.04948692
4310.00   0.73150307   0.04990610
4312.00   0.76700169   0.05400744
4314.00   0.75876975   0.05700211
4316.00   0.66989577   0.05454747
4318.00   0.73792946   0.05391486
4320.00   0.73175138   0.05450310
4322.00   0.85142946   0.05528491
4324.00   0.82879573   0.05397668
4326.00   0.68104893   0.05236608
4328.00   0.69116062   0.05032796
4330.00   0.67454499   0.04851908
4332.00   0.55090392   0.04791204
4334.00   0.66867954   0.04874788
4336.00   0.80272371   0.04988661
4338.00   0.79720211   0.05169825
4340.00   0.74318469   0.05289743
4342.00   0.69759798   0.05274125
4344.00   0.67266327   0.05331572
4346.00   0.69878083   0.05572708
4348.00   0.75421536   0.05716803
4350.00   0.69063532   0.05515781
4352.00   0.56930488   0.05348014
4354.00   0.51080483   0.06148252
4356.00   0.69449329   0.10905885
4358.00   0.81585914   0.13765554
4360.00   0.67848849   0.12624437
4362.00   0.50614792   0.08949044
4364.00   0.65856975   0.06521679
4366.00   0.68015283   0.05730574
4368.00   0.60380602   0.05479180
4370.00   0.62651086   0.05387412
4372.00   0.58699381   0.05529151
4374.00   0.88766652   0.05786781
4376.00   0.71501768   0.05626162
4378.00   0.65869892   0.05316744
4380.00   0.76570207   0.05164997
4382.00   0.71772200   0.05111764
4384.00   0.66043621   0.04998488
4386.00   0.54506928   0.04906843
4388.00   0.48928449   0.04876624
4390.00   0.51441687   0.04971382
4392.00   0.63577747   0.04939236
4394.00   0.55426353   0.04899960
4396.00   0.60003954   0.04880666
4398.00   0.56015062   0.05030468
4400.00   0.54306442   0.05174638
4402.00   0.65180236   0.05194070
4404.00   0.63714081   0.04990393
4406.00   0.67723900   0.05022768
4408.00   0.70399958   0.04988749
4410.00   0.62298876   0.04987738
4412.00   0.45411414   0.04932292
4414.00   0.59748721   0.05127482
4416.00   0.58683908   0.05163566
4418.00   0.57352757   0.05063255
4420.00   0.49763247   0.04945226
4422.00   0.63596952   0.04938048
4424.00   0.49404049   0.04845825
4426.00   0.64914596   0.04900074
4428.00   0.52112132   0.04825005
4430.00   0.61039388   0.04873194
4432.00   0.48453477   0.04769456
4434.00   0.60580164   0.04769883
4436.00   0.59454256   0.04807708
4438.00   0.64823651   0.04860824
4440.00   0.57696569   0.04809586
4442.00   0.41698036   0.04741406
4444.00   0.61077327   0.04780007
4446.00   0.49436784   0.04745130
4448.00   0.60290277   0.04756240
4450.00   0.46540749   0.04674634
4452.00   0.66794419   0.04715101
4454.00   0.49126977   0.04642751
4456.00   0.50645018   0.04672404
4458.00   0.63694841   0.04694805
4460.00   0.52692294   0.04670766
4462.00   0.59176445   0.04696374
4464.00   0.63640028   0.04688138
4466.00   0.65242457   0.04642765
4468.00   0.57920295   0.04635815
4470.00   0.51373774   0.04564190
4472.00   0.50958717   0.04554726
4474.00   0.50346851   0.04597299
4476.00   0.63242930   0.04802458
4478.00   0.61275977   0.04649673
4480.00   0.66423893   0.04647928
4482.00   0.58752400   0.04670674
4484.00   0.70383728   0.04699847
4486.00   0.59711874   0.04665401
4488.00   0.59707600   0.04679455
4490.00   0.56368816   0.04653127
4492.00   0.58869690   0.04699269
4494.00   0.44599903   0.04681301
4496.00   0.49380469   0.04718862
4498.00   0.48816609   0.04732804
4500.00   0.63365793   0.04730057
4502.00   0.59103990   0.04637396
4504.00   0.56615263   0.04638198
4506.00   0.55483043   0.04603514
4508.00   0.63437235   0.04604235
4510.00   0.60710585   0.04576525
4512.00   0.59291565   0.04574335
4514.00   0.48852247   0.04500683
4516.00   0.50348330   0.04479487
4518.00   0.60694075   0.04487663
4520.00   0.56351918   0.04480702
4522.00   0.57596844   0.04480423
4524.00   0.60871869   0.04454308
4526.00   0.68544906   0.04475725
4528.00   0.68822342   0.04490055
4530.00   0.65457189   0.04438899
4532.00   0.64169306   0.04485493
4534.00   0.51809108   0.04385106
4536.00   0.63576877   0.04446724
4538.00   0.60264432   0.04382000
4540.00   0.57732958   0.04377335
4542.00   0.61003846   0.04447620
4544.00   0.64234889   0.04514512
4546.00   0.66286552   0.04484677
4548.00   0.66669810   0.04403210
4550.00   0.69840723   0.04327406
4552.00   0.68669349   0.04301963
4554.00   0.72595036   0.04325202
4556.00   0.65537024   0.04324238
4558.00   0.73380041   0.04357078
4560.00   0.73725754   0.04318847
4562.00   0.78715688   0.04271561
4564.00   0.78602296   0.04224213
4566.00   0.76569492   0.04217674
4568.00   0.79208142   0.04214201
4570.00   0.74297398   0.04215711
4572.00   0.66483086   0.04202550
4574.00   0.70405602   0.04224009
4576.00   0.79986393   0.04251013
4578.00   0.64655977   0.04146070
4580.00   0.81689328   0.04204206
4582.00   0.69414937   0.04060595
4584.00   0.80476946   0.04055629
4586.00   0.75990134   0.04040353
4588.00   0.75027609   0.04071235
4590.00   0.81561452   0.04080210
4592.00   0.79539424   0.04092027
4594.00   0.76708943   0.04107466
4596.00   0.93476617   0.04152136
4598.00   0.84498948   0.04108887
4600.00   0.96622872   0.04110437
4602.00   0.87378740   0.04046325
4604.00   0.83263421   0.04040985
4606.00   0.78958178   0.04055982
4608.00   0.85104787   0.04123175
4610.00   0.93545997   0.04107606
