# File created by shivutils (I.Shivvers)
# Blotched regions marked with a #.
# wl(A)   flm    er(optional)
3460.00   0.80781931
3462.00   0.80630225
3464.00   0.69062507
3466.00   0.94223744
3468.00   0.98400199
3470.00   0.98091739
3472.00   1.05438197
3474.00   0.87656105
3476.00   1.21971679
3478.00   1.12951899
3480.00   0.70627141
3482.00   1.02218914
3484.00   0.96548241
3486.00   1.09849632
3488.00   0.78537333
3490.00   0.81871837
3492.00   0.56780648
3494.00   0.57321256
3496.00   0.61692572
3498.00   0.84903586
3500.00   1.12577534
3502.00   0.95576376
3504.00   0.70330209
3506.00   0.83637065
3508.00   1.05535424
3510.00   0.86228621
3512.00   0.88366890
3514.00   0.87514842
3516.00   1.07891881
3518.00   1.13489771
3520.00   0.64572233
3522.00   0.87465763
3524.00   0.87064469
3526.00   0.84008712
3528.00   0.80993128
3530.00   0.79620451
3532.00   0.80569589
3534.00   0.93776214
3536.00   0.84581357
3538.00   0.81699300
3540.00   0.86034381
3542.00   0.88731331
3544.00   0.68183959
3546.00   0.72222114
3548.00   0.81368649
3550.00   0.79643393
3552.00   0.75114834
3554.00   0.74234200
3556.00   0.51210976
3558.00   0.90132809
3560.00   0.83395869
3562.00   0.99622190
3564.00   0.81366974
3566.00   0.93752903
3568.00   0.95464456
3570.00   0.89871007
3572.00   0.89603269
3574.00   0.97050560
3576.00   0.90065521
3578.00   0.89417547
3580.00   0.85734493
3582.00   0.70351100
3584.00   0.89929152
3586.00   0.84285367
3588.00   0.86401731
3590.00   0.92216384
3592.00   0.88937068
3594.00   1.03672183
3596.00   0.94621342
3598.00   0.92106020
3600.00   1.07403421
3602.00   0.73608232
3604.00   0.65966761
3606.00   0.90078580
3608.00   0.83312839
3610.00   0.98245049
3612.00   0.77940136
3614.00   0.87533075
3616.00   0.92737645
3618.00   0.85270929
3620.00   1.03983140
3622.00   0.93623495
3624.00   0.78904992
3626.00   0.85040021
3628.00   0.88800347
3630.00   0.89998460
3632.00   1.09996235
3634.00   0.90167689
3636.00   0.91396332
3638.00   0.89959091
3640.00   0.80995989
3642.00   1.26639342
3644.00   1.23394513
3646.00   1.04520833
3648.00   1.00815570
3650.00   1.04383123
3652.00   0.95404142
3654.00   0.91216028
3656.00   0.97291017
3658.00   0.90698928
3660.00   0.96485102
3662.00   0.95094496
3664.00   0.80592614
3666.00   0.91257846
3668.00   0.88637507
3670.00   1.07501149
3672.00   1.22605872
3674.00   0.82514304
3676.00   0.98160636
3678.00   1.08127022
3680.00   0.90899515
3682.00   1.02748251
3684.00   0.84723109
3686.00   1.12274468
3688.00   1.03924644
3690.00   1.04383612
3692.00   0.92146480
3694.00   1.06966102
3696.00   0.98180401
3698.00   1.13681734
3700.00   1.01200044
3702.00   0.93377578
3704.00   1.02197242
3706.00   0.99282092
3708.00   0.96907115
3710.00   0.97358781
3712.00   1.10336864
3714.00   1.05354333
3716.00   1.05123854
3718.00   1.12254739
3720.00   0.95090628
3722.00   0.85403121
3724.00   1.01061153
3726.00   1.12634826
3728.00   0.90832335
3730.00   1.16603875
3732.00   0.88808256
3734.00   0.87469572
3736.00   1.19987178
3738.00   0.98275715
3740.00   1.04356122
3742.00   1.05307376
3744.00   0.96801454
3746.00   1.11259663
3748.00   1.01231337
3750.00   1.06746709
3752.00   0.99035865
3754.00   0.93927127
3756.00   0.96786290
3758.00   1.09998298
3760.00   0.87872684
3762.00   1.05846977
3764.00   1.01067579
3766.00   1.01770616
3768.00   0.92738068
3770.00   0.97680354
3772.00   0.97429669
3774.00   0.92905837
3776.00   0.97587669
3778.00   0.89503831
3780.00   0.84210861
3782.00   1.00028479
3784.00   0.84137094
3786.00   1.00286019
3788.00   0.86261088
3790.00   0.69523072
3792.00   0.90924931
3794.00   0.98462206
3796.00   0.81621855
3798.00   0.83315027
3800.00   0.82840556
3802.00   0.72964579
3804.00   0.75630724
3806.00   0.62692755
3808.00   0.67533648
3810.00   0.62207443
3812.00   0.72705549
3814.00   0.76761913
3816.00   0.53217506
3818.00   0.55170310
3820.00   0.59149683
3822.00   0.67248583
3824.00   0.65720659
3826.00   0.63819104
3828.00   0.54391927
3830.00   0.63458723
3832.00   0.54705358
3834.00   0.59324878
3836.00   0.53810006
3838.00   0.54498529
3840.00   0.60368878
3842.00   0.54498976
3844.00   0.58016920
3846.00   0.47157595
3848.00   0.53743321
3850.00   0.52289104
3852.00   0.46020141
3854.00   0.46416709
3856.00   0.42536053
3858.00   0.52549940
3860.00   0.51052278
3862.00   0.49279830
3864.00   0.57178843
3866.00   0.69925493
3868.00   0.62799156
3870.00   0.58357769
3872.00   0.50598276
3874.00   0.45685208
3876.00   0.43653387
3878.00   0.42842039
3880.00   0.48321512
3882.00   0.53167838
3884.00   0.63634694
3886.00   0.58377123
3888.00   0.53731090
3890.00   0.43665448
3892.00   0.56533098
3894.00   0.63480562
3896.00   0.64714903
3898.00   0.52180183
3900.00   0.49685186
3902.00   0.65400571
3904.00   0.73444057
3906.00   0.61488444
3908.00   0.55520248
3910.00   0.49521229
3912.00   0.50392282
3914.00   0.42725384
3916.00   0.58543986
3918.00   0.53286517
3920.00   0.48227805
3922.00   0.58022159
3924.00   0.45539621
3926.00   0.47623724
3928.00   0.68779212
3930.00   0.61775309
3932.00   0.56339842
3934.00   0.57224524
3936.00   0.57658815
3938.00   0.57728696
3940.00   0.57726991
3942.00   0.65433747
3944.00   0.65256667
3946.00   0.59205860
3948.00   0.58366966
3950.00   0.59180731
3952.00   0.70129210
3954.00   0.68747908
3956.00   0.78536928
3958.00   0.71531183
3960.00   0.74300247
3962.00   0.72662222
3964.00   0.62073201
3966.00   0.68479592
3968.00   0.72060055
3970.00   0.70482707
3972.00   0.78384227
3974.00   0.76951951
3976.00   0.89857405
3978.00   1.04567587
3980.00   0.86283892
3982.00   0.87508458
3984.00   0.82052946
3986.00   0.86644369
3988.00   0.99655163
3990.00   0.96662641
3992.00   0.89225870
3994.00   0.98964566
3996.00   0.93964952
3998.00   1.09952235
4000.00   1.00815594
4002.00   1.03727925
4004.00   1.08539712
4006.00   1.15333092
4008.00   1.14983702
4010.00   1.21495438
4012.00   1.21059191
4014.00   1.21101069
4016.00   1.12452137
4018.00   1.16432774
4020.00   1.02375960
4022.00   1.22577059
4024.00   1.02889729
4026.00   1.14073718
4028.00   1.11711836
4030.00   1.20321035
4032.00   1.18133974
4034.00   1.11944854
4036.00   1.07869840
4038.00   1.34232414
4040.00   1.31262910
4042.00   1.23574138
4044.00   1.19488955
4046.00   1.35015368
4048.00   1.00051177
4050.00   1.20919013
4052.00   1.22179484
4054.00   1.33006585
4056.00   1.28494537
4058.00   1.17299461
4060.00   1.21596146
4062.00   1.08090389
4064.00   1.15165877
4066.00   1.08060133
4068.00   1.14800763
4070.00   1.18556905
4072.00   1.21843553
4074.00   1.23152304
4076.00   1.12749851
4078.00   1.11642706
4080.00   1.16493380
4082.00   1.12145782
4084.00   1.07816565
4086.00   1.13900363
4088.00   0.97354198
4090.00   0.98013210
4092.00   0.97625458
4094.00   0.97618228
4096.00   0.95296657
4098.00   0.81431609
4100.00   0.89205235
4102.00   1.00590563
4104.00   0.90956312
4106.00   0.96518129
4108.00   0.99231017
4110.00   0.87128651
4112.00   1.03119266
4114.00   0.99088043
4116.00   0.93157446
4118.00   0.98065436
4120.00   0.93440413
4122.00   0.97590685
4124.00   0.86933804
4126.00   0.87388468
4128.00   0.88784122
4130.00   0.86821258
4132.00   0.98012930
4134.00   0.96650195
4136.00   0.92603010
4138.00   0.96469551
4140.00   0.90180838
4142.00   1.05842543
4144.00   1.02689970
4146.00   0.93445694
4148.00   1.01215839
4150.00   1.02456033
4152.00   0.93387586
4154.00   1.03769207
4156.00   1.07359552
4158.00   1.00099206
4160.00   1.11427248
4162.00   1.16667736
4164.00   1.17988956
4166.00   1.13668525
4168.00   1.22189558
4170.00   1.09023201
4172.00   1.29141104
4174.00   1.22947562
4176.00   1.16271603
4178.00   1.15403378
4180.00   1.24557114
4182.00   1.28198791
4184.00   1.19824815
4186.00   1.29292834
4188.00   1.32881141
4190.00   1.29793859
4192.00   1.27365649
4194.00   1.31285810
4196.00   1.24686098
4198.00   1.22226644
4200.00   1.14737678
4202.00   1.27267468
4204.00   1.27149725
4206.00   1.22472274
4208.00   1.27107549
4210.00   1.28695977
4212.00   1.29573011
4214.00   1.25259578
4216.00   1.33753586
4218.00   1.30995226
4220.00   1.22037828
4222.00   1.26903641
4224.00   1.27818239
4226.00   1.31080580
4228.00   1.30472827
4230.00   1.38555527
4232.00   1.38766730
4234.00   1.31631327
4236.00   1.24996173
4238.00   1.14991009
4240.00   1.19731081
4242.00   1.18734598
4244.00   1.23331249
4246.00   1.29236794
4248.00   1.26934564
4250.00   1.30728579
4252.00   1.38077247
4254.00   1.29826319
4256.00   1.25538158
4258.00   1.18225741
4260.00   1.16145718
4262.00   1.25528038
4264.00   1.20781827
4266.00   1.21851754
4268.00   1.20434010
4270.00   1.35747445
4272.00   1.23053777
4274.00   1.13518441
4276.00   1.16333210
4278.00   1.08563018
4280.00   1.18840611
4282.00   1.25378728
4284.00   1.15720069
4286.00   1.13354099
4288.00   1.23828661
4290.00   1.13015962
4292.00   1.20363390
4294.00   1.21904564
4296.00   1.13102615
4298.00   1.22695553
4300.00   1.18620825
4302.00   1.21730340
4304.00   1.22796082
4306.00   1.21269810
4308.00   1.05789506
4310.00   1.18943214
4312.00   1.22883022
4314.00   1.14979136
4316.00   1.12566936
4318.00   1.09406376
4320.00   1.03307927
4322.00   1.10238147
4324.00   1.09892225
4326.00   1.20056117
4328.00   1.15272093
4330.00   1.05369294
4332.00   1.04706371
4334.00   1.07736623
4336.00   1.12537479
4338.00   1.05455017
4340.00   1.08173835
4342.00   1.06291294
4344.00   1.08368218
4346.00   1.01098812
4348.00   0.97071707
4350.00   0.97157651
#4352.00   0.95503426
#4354.00   1.15137267
#4356.00   1.27048349
#4358.00   0.96342236
#4360.00   0.84155101
#4362.00   0.95967889
4364.00   0.87007403
4366.00   0.95785660
4368.00   0.91835946
4370.00   1.03032398
4372.00   0.93618387
4374.00   0.97149003
4376.00   0.94072181
4378.00   0.93689746
4380.00   0.96528357
4382.00   0.90933889
4384.00   0.80454111
4386.00   0.87608379
4388.00   0.93610501
4390.00   0.92819160
4392.00   0.89232856
4394.00   0.83175915
4396.00   0.86121595
4398.00   0.84916127
4400.00   0.87678951
4402.00   0.80482316
4404.00   0.83186877
4406.00   0.86395657
4408.00   0.80354083
4410.00   0.80477214
4412.00   0.71989650
4414.00   0.69450831
4416.00   0.78169888
4418.00   0.78474134
4420.00   0.68462843
4422.00   0.75919604
4424.00   0.77550542
4426.00   0.72017795
4428.00   0.70193654
4430.00   0.62982053
4432.00   0.64757186
4434.00   0.78965789
4436.00   0.64867646
4438.00   0.69652414
4440.00   0.78232747
4442.00   0.59399283
4444.00   0.63394743
4446.00   0.61280489
4448.00   0.78620130
4450.00   0.71498305
4452.00   0.65750360
4454.00   0.77589154
4456.00   0.66810411
4458.00   0.72312284
4460.00   0.80843776
4462.00   0.74305713
4464.00   0.74432373
4466.00   0.66418743
4468.00   0.88137841
4470.00   0.78840166
4472.00   0.74611193
4474.00   0.68401337
4476.00   0.82523990
4478.00   0.74800414
4480.00   0.76203549
4482.00   0.76316273
4484.00   0.73964894
4486.00   0.82762247
4488.00   0.87242025
4490.00   0.82720089
4492.00   0.81670099
4494.00   0.86543936
4496.00   0.93899918
4498.00   0.81254596
4500.00   0.85024786
4502.00   0.78280902
4504.00   0.89628452
4506.00   0.91238034
4508.00   0.88258040
4510.00   0.86546552
4512.00   0.94518930
4514.00   0.83222401
4516.00   0.86555058
4518.00   0.79573905
4520.00   0.88601971
4522.00   0.74656916
4524.00   0.82928985
4526.00   0.99316347
4528.00   0.87320465
4530.00   0.81700116
4532.00   0.89530027
4534.00   0.90583050
4536.00   0.90829527
4538.00   0.86289108
4540.00   0.90149832
4542.00   0.87698305
4544.00   0.88759941
4546.00   0.87127823
4548.00   0.87060297
4550.00   0.77137387
4552.00   0.80542284
4554.00   0.86082143
4556.00   0.80144310
4558.00   0.74457794
4560.00   0.75131214
4562.00   0.69272035
4564.00   0.75444555
4566.00   0.76793104
4568.00   0.84773707
4570.00   0.85183287
4572.00   0.79494226
4574.00   0.79369467
4576.00   0.87575984
4578.00   0.87167603
4580.00   0.84531039
4582.00   0.81507641
4584.00   0.83815312
4586.00   0.89361775
4588.00   0.73281622
4590.00   0.84171093
4592.00   0.80143142
4594.00   0.76717013
4596.00   0.77744710
4598.00   0.84398574
4600.00   0.88693386
4602.00   0.85586011
4604.00   0.82877433
4606.00   0.86373669
4608.00   0.93185359
4610.00   0.99959618
4612.00   0.96764499
4614.00   0.91741776
4616.00   0.92905027
4618.00   0.85518926
4620.00   0.90177524
4622.00   1.00343001
4624.00   0.91914904
4626.00   0.93414307
4628.00   1.03094602
4630.00   0.92870075
4632.00   0.95860308
4634.00   0.98385096
4636.00   0.88977724
4638.00   0.91280031
4640.00   0.93726397
4642.00   0.91180027
4644.00   0.97877437
4646.00   0.92988080
4648.00   0.92445773
4650.00   0.97376442
4652.00   1.04831243
4654.00   1.03937876
4656.00   0.96086508
4658.00   0.95143968
4660.00   0.99313396
4662.00   1.08203101
4664.00   1.01125944
4666.00   0.90009838
4668.00   0.93416619
4670.00   1.06235540
4672.00   0.96492815
4674.00   0.96395004
4676.00   0.97384953
4678.00   1.06066179
4680.00   1.07247937
4682.00   0.97776759
4684.00   0.94333023
4686.00   0.96722066
4688.00   0.99920070
4690.00   0.90094262
4692.00   0.86994755
4694.00   1.01141655
4696.00   0.96034288
4698.00   0.89610744
4700.00   0.95350838
4702.00   0.89829320
4704.00   0.90599811
4706.00   0.90795803
4708.00   0.94460416
4710.00   0.99396890
4712.00   1.04946065
4714.00   0.95535278
4716.00   0.96007168
4718.00   0.92269236
4720.00   0.91682631
4722.00   0.95050871
4724.00   0.93405384
4726.00   0.92278773
4728.00   1.00991678
4730.00   0.98915184
4732.00   0.92264128
4734.00   0.97334087
4736.00   0.92963606
4738.00   0.92960966
4740.00   0.93960369
4742.00   0.90227109
4744.00   0.93670249
4746.00   0.97536159
4748.00   0.94993979
4750.00   0.94759125
4752.00   0.98792303
4754.00   0.90953839
4756.00   0.91167516
4758.00   0.89847541
4760.00   0.85689336
4762.00   0.85139877
4764.00   0.86094648
4766.00   0.84792274
4768.00   0.94727385
4770.00   0.88757885
4772.00   0.87745148
4774.00   0.92732209
4776.00   0.93332899
4778.00   0.82842839
4780.00   0.81028062
4782.00   0.89016438
4784.00   0.89660394
4786.00   0.77759266
4788.00   0.81176519
4790.00   0.79662645
4792.00   0.85375041
4794.00   0.79071152
4796.00   0.81898957
4798.00   0.83241636
4800.00   0.75502902
4802.00   0.74942845
4804.00   0.78126371
4806.00   0.84205657
4808.00   0.77364051
4810.00   0.73222983
4812.00   0.74390674
4814.00   0.77655214
4816.00   0.76527792
4818.00   0.71269429
4820.00   0.79921138
4822.00   0.82274050
4824.00   0.81524885
4826.00   0.82789218
4828.00   0.72616732
4830.00   0.70699435
4832.00   0.74842197
4834.00   0.72845274
4836.00   0.83580780
4838.00   0.80832094
4840.00   0.73879564
4842.00   0.75872529
4844.00   0.79997361
4846.00   0.78878975
4848.00   0.82098043
4850.00   0.79624939
4852.00   0.82159477
4854.00   0.75646204
4856.00   0.80315477
4858.00   0.76046658
4860.00   0.75515479
4862.00   0.79817772
4864.00   0.77621907
4866.00   0.80843377
4868.00   0.76781577
4870.00   0.81181443
4872.00   0.77390605
4874.00   0.74085712
4876.00   0.75454366
4878.00   0.76818711
4880.00   0.79524255
4882.00   0.78219217
4884.00   0.72243458
4886.00   0.74855644
4888.00   0.69160950
4890.00   0.76412427
4892.00   0.69882941
4894.00   0.70530474
4896.00   0.72483522
4898.00   0.75827211
4900.00   0.71414322
4902.00   0.65944833
4904.00   0.65923655
4906.00   0.75904465
4908.00   0.62925547
4910.00   0.62179780
4912.00   0.69308257
4914.00   0.57882243
4916.00   0.71824718
4918.00   0.62087601
4920.00   0.72495908
4922.00   0.72389692
4924.00   0.62199914
4926.00   0.58962297
4928.00   0.73197073
4930.00   0.75297517
4932.00   0.73658293
4934.00   0.72403610
4936.00   0.74457735
4938.00   0.70819038
4940.00   0.75091606
4942.00   0.67557269
4944.00   0.73038048
4946.00   0.73066717
4948.00   0.75930613
4950.00   0.71625042
4952.00   0.77488834
4954.00   0.72016770
4956.00   0.82950556
4958.00   0.67817301
4960.00   0.65378797
4962.00   0.69406098
4964.00   0.76934063
4966.00   0.68178159
4968.00   0.64159399
4970.00   0.60190535
4972.00   0.62118196
4974.00   0.65129447
4976.00   0.66037172
4978.00   0.65611488
4980.00   0.66763550
4982.00   0.63889164
4984.00   0.61083055
4986.00   0.53351206
4988.00   0.61593777
4990.00   0.46633103
4992.00   0.55582088
4994.00   0.64326310
4996.00   0.60641837
4998.00   0.51604986
5000.00   0.49801433
5002.00   0.51428676
5004.00   0.51445299
5006.00   0.53578788
5008.00   0.61492264
5010.00   0.50508678
5012.00   0.52049100
5014.00   0.51969004
5016.00   0.40311244
5018.00   0.45929551
5020.00   0.51424885
5022.00   0.49727419
5024.00   0.51206517
5026.00   0.44211304
5028.00   0.44370744
5030.00   0.44430351
5032.00   0.52340627
5034.00   0.45110235
5036.00   0.56264895
5038.00   0.60432374
5040.00   0.56256843
5042.00   0.49355277
5044.00   0.51466620
5046.00   0.59185296
5048.00   0.54474527
5050.00   0.57013965
5052.00   0.51602161
5054.00   0.51893055
5056.00   0.58236492
5058.00   0.55993086
5060.00   0.59149170
5062.00   0.70226079
5064.00   0.57655269
5066.00   0.63439655
5068.00   0.57440007
5070.00   0.61447453
5072.00   0.54570365
5074.00   0.62885773
5076.00   0.63811338
5078.00   0.55655181
5080.00   0.69303250
5082.00   0.63686711
5084.00   0.67422909
5086.00   0.62078291
5088.00   0.70509762
5090.00   0.60915035
5092.00   0.59354824
5094.00   0.68855095
5096.00   0.64701200
5098.00   0.60916394
5100.00   0.67708743
5102.00   0.71611112
5104.00   0.64409941
5106.00   0.68095660
5108.00   0.65622073
5110.00   0.66018111
5112.00   0.64173460
5114.00   0.56337506
5116.00   0.61151654
5118.00   0.64742333
5120.00   0.63827991
5122.00   0.62858331
5124.00   0.61117059
5126.00   0.54892439
5128.00   0.61156207
5130.00   0.59564847
5132.00   0.64696980
5134.00   0.61329895
5136.00   0.62059152
5138.00   0.56802523
5140.00   0.67850477
5142.00   0.67582154
5144.00   0.66763759
5146.00   0.64333087
5148.00   0.74532109
5150.00   0.65823692
5152.00   0.65075910
5154.00   0.56682253
5156.00   0.59734601
5158.00   0.63473022
5160.00   0.62965351
5162.00   0.63967824
5164.00   0.58077908
5166.00   0.61405987
5168.00   0.63016415
5170.00   0.66643000
5172.00   0.64104885
5174.00   0.58456749
5176.00   0.61520034
5178.00   0.64484966
5180.00   0.67470217
5182.00   0.61755961
5184.00   0.65230614
5186.00   0.64155519
5188.00   0.63235897
5190.00   0.66033906
5192.00   0.67674434
5194.00   0.62769312
5196.00   0.61275786
5198.00   0.67202908
5200.00   0.69130391
5202.00   0.65251124
5204.00   0.66027755
5206.00   0.65924001
5208.00   0.65147442
5210.00   0.66736257
5212.00   0.67735171
5214.00   0.65818363
5216.00   0.59376603
5218.00   0.64900362
5220.00   0.68987250
5222.00   0.65897071
5224.00   0.67942065
5226.00   0.69652408
5228.00   0.67021990
5230.00   0.71751004
5232.00   0.72757977
5234.00   0.72757268
5236.00   0.68367714
5238.00   0.71229720
5240.00   0.72066540
5242.00   0.75228268
5244.00   0.73921484
5246.00   0.66814923
5248.00   0.74632037
5250.00   0.61741364
5252.00   0.72696996
5254.00   0.69160503
5256.00   0.65690178
5258.00   0.79020232
5260.00   0.75140941
5262.00   0.75245821
5264.00   0.70715314
5266.00   0.73255497
5268.00   0.74511969
5270.00   0.78988492
5272.00   0.78142762
5274.00   0.75731635
5276.00   0.75507557
5278.00   0.71129936
5280.00   0.76358020
5282.00   0.72061139
5284.00   0.73181534
5286.00   0.74154735
5288.00   0.70446283
5290.00   0.77944034
5292.00   0.76102746
5294.00   0.70132172
5296.00   0.67150617
5298.00   0.65353292
5300.00   0.75181717
5302.00   0.79874653
5304.00   0.58001763
5306.00   0.59979337
5308.00   0.70979184
5310.00   0.73911130
5312.00   0.63567024
5314.00   0.61157560
5316.00   0.66764951
5318.00   0.66851681
5320.00   0.67958516
5322.00   0.72676212
5324.00   0.66018122
5326.00   0.73105222
5328.00   0.63913500
5330.00   0.66420960
5332.00   0.67121267
5334.00   0.64617705
5336.00   0.65627605
5338.00   0.69541830
5340.00   0.70405227
5342.00   0.62517667
5344.00   0.70863581
5346.00   0.68157166
5348.00   0.67239296
5350.00   0.70084900
5352.00   0.76053900
