# File created by shivutils (I.Shivvers)
# wl(A)   flm    er(optional)
3442.00   0.18904407   0.04969013
3444.00   0.16367739   0.04757148
3446.00   0.29618484   0.04879064
3448.00   0.27629614   0.05029681
3450.00   0.13785484   0.05156847
3452.00   0.04838149   0.05284071
3454.00   0.20498328   0.05443495
3456.00   0.27912226   0.05290873
3458.00   0.18824036   0.05443762
3460.00   0.21937500   0.05191820
3462.00   0.25074226   0.05259285
3464.00   0.25067234   0.05142099
3466.00   0.20215014   0.05157369
3468.00   0.19885495   0.05054759
3470.00   0.10572373   0.05111850
3472.00   0.10390805   0.05057766
3474.00   0.20156065   0.05041326
3476.00   0.12135914   0.05205637
3478.00   0.24881081   0.05758147
3480.00   0.20644823   0.05929256
3482.00   0.18501191   0.06060436
3484.00   0.31912851   0.05785020
3486.00   0.11135062   0.05659298
3488.00   0.21677765   0.05584344
3490.00   0.13500078   0.05428987
3492.00   0.13894679   0.05382010
3494.00   0.20813429   0.05357862
3496.00   0.28435776   0.05291025
3498.00   0.11980966   0.05176908
3500.00   0.09878575   0.05242731
3502.00   0.18062310   0.05148856
3504.00   0.23902045   0.05089556
3506.00   0.21673012   0.05100567
3508.00   0.17289560   0.05036564
3510.00   0.12863013   0.05172636
3512.00   0.13071187   0.05029004
3514.00   0.20170882   0.05168254
3516.00   0.17782569   0.05159060
3518.00   0.23477820   0.05132090
3520.00   0.27269080   0.05096949
3522.00   0.16672981   0.05013077
3524.00   0.11770298   0.05050366
3526.00   0.16119102   0.04974961
3528.00   0.24919923   0.05052239
3530.00   0.22655129   0.05160075
3532.00   0.34034291   0.05236370
3534.00   0.20902500   0.04961321
3536.00   0.22279401   0.05044543
3538.00   0.22202678   0.05087101
3540.00   0.19277006   0.05341579
3542.00   0.13483459   0.05537758
3544.00   0.13332675   0.05458684
3546.00   0.41516435   0.05637651
3548.00   0.41544774   0.05484577
3550.00   0.26806429   0.05491536
3552.00   0.27745897   0.05444933
3554.00   0.32488188   0.05467308
3556.00   0.31711617   0.05425578
3558.00   0.15617520   0.05224174
3560.00   0.46504182   0.05353603
3562.00   0.29770666   0.05126917
3564.00   0.22511961   0.05040232
3566.00   0.34514239   0.05117348
3568.00   0.34648821   0.04961663
3570.00   0.24340764   0.04880210
3572.00   0.40388474   0.05125618
3574.00   0.37513420   0.05029195
3576.00   0.34716424   0.05022355
3578.00   0.32437038   0.04887483
3580.00   0.29980406   0.04769323
3582.00   0.30871856   0.04700632
3584.00   0.29953831   0.04604115
3586.00   0.28593221   0.04481314
3588.00   0.35306013   0.04594652
3590.00   0.33833086   0.04685242
3592.00   0.29967201   0.04510924
3594.00   0.23188964   0.04385322
3596.00   0.26523355   0.04297594
3598.00   0.33014420   0.04330930
3600.00   0.36609146   0.04376705
3602.00   0.33628362   0.04361635
3604.00   0.26181570   0.04173527
3606.00   0.22181678   0.04143432
3608.00   0.33921605   0.04275937
3610.00   0.26972306   0.04130412
3612.00   0.34436426   0.04468371
3614.00   0.34486148   0.04609488
3616.00   0.33560312   0.04530367
3618.00   0.37013555   0.04488147
3620.00   0.15644984   0.04062260
3622.00   0.38731542   0.04319982
3624.00   0.27858889   0.04232278
3626.00   0.29806593   0.04224095
3628.00   0.28429830   0.04314447
3630.00   0.40382773   0.04462926
3632.00   0.34199280   0.04367636
3634.00   0.20398915   0.04334410
3636.00   0.36002344   0.04282147
3638.00   0.31877664   0.04266525
3640.00   0.31901169   0.04309331
3642.00   0.40883553   0.04482220
3644.00   0.42979857   0.04583956
3646.00   0.40624917   0.04678848
3648.00   0.35992265   0.05913787
3650.00   0.40872443   0.06762146
3652.00   0.35764682   0.06259650
3654.00   0.44770434   0.05596955
3656.00   0.41977823   0.05180713
3658.00   0.25986394   0.04416978
3660.00   0.33496973   0.04487415
3662.00   0.44660264   0.05190833
3664.00   0.35358000   0.04874315
3666.00   0.38433468   0.04223216
3668.00   0.36306420   0.03821222
3670.00   0.35984516   0.03723385
3672.00   0.38456324   0.03804112
3674.00   0.38494962   0.03818781
3676.00   0.32118857   0.03658904
3678.00   0.36291939   0.03674490
3680.00   0.33559683   0.03651481
3682.00   0.37818262   0.03562463
3684.00   0.42939007   0.03581840
3686.00   0.38136825   0.03503374
3688.00   0.41040742   0.03529521
3690.00   0.39907879   0.03546165
3692.00   0.36330619   0.03544611
3694.00   0.32225421   0.03486768
3696.00   0.39737895   0.03496043
3698.00   0.40885794   0.03614173
3700.00   0.35991481   0.03632544
3702.00   0.49012527   0.03738124
3704.00   0.43655455   0.03614425
3706.00   0.44789067   0.03573499
3708.00   0.42870003   0.03492709
3710.00   0.41724959   0.03531736
3712.00   0.42422086   0.03515533
3714.00   0.41965494   0.03467613
3716.00   0.47666618   0.03469399
3718.00   0.44272637   0.03481773
3720.00   0.42621988   0.03376931
3722.00   0.41422302   0.03357828
3724.00   0.32909682   0.03240454
3726.00   0.42987537   0.03398328
3728.00   0.29333895   0.03174532
3730.00   0.34070861   0.03286419
3732.00   0.34659660   0.03288314
3734.00   0.33152884   0.03268343
3736.00   0.37694424   0.03307235
3738.00   0.24341990   0.03248327
3740.00   0.27664506   0.03317417
3742.00   0.32480320   0.03299933
3744.00   0.30759186   0.03188044
3746.00   0.24993500   0.03014726
3748.00   0.34604013   0.03144494
3750.00   0.29974476   0.03043864
3752.00   0.36611444   0.03131137
3754.00   0.34654650   0.03151302
3756.00   0.44286728   0.03147971
3758.00   0.34373787   0.03023208
3760.00   0.29539305   0.03034532
3762.00   0.29949665   0.02903156
3764.00   0.29650337   0.02858516
3766.00   0.33562338   0.02874098
3768.00   0.30886176   0.02824906
3770.00   0.30107784   0.02921662
3772.00   0.30301091   0.02886598
3774.00   0.19232813   0.02777700
3776.00   0.23377533   0.02741708
3778.00   0.14677417   0.02769711
3780.00   0.26777509   0.02765341
3782.00   0.29650134   0.02841544
3784.00   0.32530501   0.02844590
3786.00   0.26585171   0.02693018
3788.00   0.24865401   0.02768589
3790.00   0.29958040   0.02879521
3792.00   0.30240035   0.02886288
3794.00   0.37152913   0.02928596
3796.00   0.28800207   0.02768664
3798.00   0.27680716   0.02718885
3800.00   0.22913122   0.02660025
3802.00   0.26215017   0.02742795
3804.00   0.26112267   0.02747365
3806.00   0.21048446   0.02618941
3808.00   0.21829477   0.02579380
3810.00   0.26743937   0.02681120
3812.00   0.22041434   0.02662264
3814.00   0.25047499   0.02673214
3816.00   0.27206025   0.02660418
3818.00   0.30909288   0.02743973
3820.00   0.25907958   0.02723511
3822.00   0.25560701   0.02701219
3824.00   0.22339198   0.02595179
3826.00   0.24033540   0.02688118
3828.00   0.27710721   0.02774062
3830.00   0.27532721   0.02881873
3832.00   0.28066087   0.02823535
3834.00   0.28820303   0.02722771
3836.00   0.26972663   0.02717318
3838.00   0.21598299   0.02625692
3840.00   0.24922934   0.02719972
3842.00   0.29168844   0.02775092
3844.00   0.28306487   0.02724983
3846.00   0.29208997   0.02679499
3848.00   0.33237320   0.02673144
3850.00   0.38402647   0.02702580
3852.00   0.32817203   0.02645146
3854.00   0.35097826   0.02632081
3856.00   0.33504218   0.02643625
3858.00   0.31762770   0.02530034
3860.00   0.38689795   0.02636196
3862.00   0.39321980   0.02661832
3864.00   0.37726241   0.02679221
3866.00   0.41332617   0.02645460
3868.00   0.40415955   0.02669597
3870.00   0.44378889   0.02667175
3872.00   0.40577742   0.02733068
3874.00   0.45023993   0.02833221
3876.00   0.43137297   0.02802422
3878.00   0.48570445   0.02766681
3880.00   0.45834380   0.02685453
3882.00   0.49167854   0.02743834
3884.00   0.43813887   0.02685972
3886.00   0.55241638   0.02782533
3888.00   0.51183438   0.02702545
3890.00   0.60422385   0.02777919
3892.00   0.61711937   0.02834928
3894.00   0.59361374   0.02836477
3896.00   0.65450102   0.02876105
3898.00   0.51568151   0.02775628
3900.00   0.61769366   0.02887299
3902.00   0.58993095   0.02858632
3904.00   0.60700601   0.02972776
3906.00   0.72174978   0.03301948
3908.00   0.72776896   0.03459226
3910.00   0.67469013   0.03443096
3912.00   0.72888237   0.03491038
3914.00   0.71689010   0.03322566
3916.00   0.68784976   0.03138784
3918.00   0.73163718   0.03049920
3920.00   0.72923690   0.03008521
3922.00   0.82365268   0.03017184
3924.00   0.75214773   0.02962971
3926.00   0.86273646   0.03010972
3928.00   0.75273162   0.02908218
3930.00   0.82397151   0.02977360
3932.00   0.77383500   0.03063188
3934.00   0.95155877   0.03158697
3936.00   0.92649579   0.03047707
3938.00   0.93851817   0.03089246
3940.00   0.90824986   0.03064866
3942.00   0.91217327   0.03168577
3944.00   0.93688309   0.03226261
3946.00   0.98898745   0.03186135
3948.00   0.90718073   0.03105082
3950.00   0.97483540   0.03086502
3952.00   1.01290572   0.03136179
3954.00   1.11637354   0.03153386
3956.00   1.02614033   0.03112222
3958.00   0.97677028   0.03088155
3960.00   1.06497860   0.03234091
3962.00   1.01209974   0.03198579
3964.00   0.93944609   0.03047960
3966.00   1.01574159   0.03056770
3968.00   0.99121398   0.03001509
3970.00   1.08219886   0.03063461
3972.00   1.08509564   0.03112947
3974.00   1.11830795   0.03138923
3976.00   1.01971626   0.03064417
3978.00   1.08836424   0.03108601
3980.00   1.07601452   0.03107714
3982.00   1.12726486   0.03100542
3984.00   1.08231413   0.03070182
3986.00   1.07001460   0.03058874
3988.00   1.13804793   0.03133184
3990.00   1.11036515   0.03119341
3992.00   1.09401524   0.03103943
3994.00   1.04360211   0.03120101
3996.00   1.04546177   0.03203491
3998.00   1.03665924   0.03101385
4000.00   0.87726742   0.02856004
4002.00   0.87904674   0.02823190
4004.00   1.02714813   0.02951923
4006.00   1.00584209   0.02997865
4008.00   0.99976933   0.03005678
4010.00   1.03566456   0.03056507
4012.00   0.97218233   0.02993064
4014.00   1.01262856   0.03013731
4016.00   0.93423820   0.02958154
4018.00   0.94060695   0.03117731
4020.00   0.97111279   0.03308922
4022.00   0.88959175   0.03382484
4024.00   0.96089202   0.03314367
4026.00   0.94068289   0.03168806
4028.00   0.85374767   0.02993404
4030.00   0.85979784   0.02960253
4032.00   0.93596035   0.02936834
4034.00   0.85246247   0.02814170
4036.00   0.70274669   0.02680443
4038.00   0.78420216   0.02709423
4040.00   0.78756905   0.02756915
4042.00   0.72861677   0.02922161
4044.00   0.85659075   0.04233393
4046.00   0.77337724   0.05094079
4048.00   0.72457063   0.04590653
4050.00   0.81005239   0.03342105
4052.00   0.74111593   0.02908054
4054.00   0.72711849   0.02887864
4056.00   0.71847504   0.02841681
4058.00   0.69622505   0.02686029
4060.00   0.75499433   0.02674884
4062.00   0.68060869   0.02633919
4064.00   0.61225325   0.02583299
4066.00   0.60668766   0.02584581
4068.00   0.69370550   0.02605878
4070.00   0.65583384   0.02526929
4072.00   0.61591631   0.02534684
4074.00   0.64284599   0.02607671
4076.00   0.67053366   0.02900164
4078.00   0.66787690   0.02964030
4080.00   0.59936160   0.02793761
4082.00   0.61638987   0.02710639
4084.00   0.58496761   0.02689548
4086.00   0.63826543   0.02638786
4088.00   0.60632741   0.02527970
4090.00   0.64016211   0.02420835
4092.00   0.61088598   0.02408760
4094.00   0.66193146   0.02409202
4096.00   0.54183042   0.02328298
4098.00   0.58476967   0.02357340
4100.00   0.60183084   0.02353596
4102.00   0.61888880   0.02302221
4104.00   0.55642188   0.02273710
4106.00   0.56499845   0.02293944
4108.00   0.51741588   0.02264656
4110.00   0.57035589   0.02287635
4112.00   0.54316097   0.02304535
4114.00   0.58003289   0.02299515
4116.00   0.55866432   0.02259052
4118.00   0.57763392   0.02260970
4120.00   0.51975375   0.02185248
4122.00   0.60875845   0.02252837
4124.00   0.60574293   0.02248730
4126.00   0.59106320   0.02264963
4128.00   0.55222785   0.02222674
4130.00   0.53144622   0.02253628
4132.00   0.53403014   0.02301903
4134.00   0.58403569   0.02348473
4136.00   0.52542156   0.02271289
4138.00   0.54334044   0.02291605
4140.00   0.57702500   0.02326777
4142.00   0.58576590   0.02287577
4144.00   0.59846854   0.02215916
4146.00   0.55033106   0.02194026
4148.00   0.53094566   0.02157745
4150.00   0.57233787   0.02246533
4152.00   0.52587187   0.02282877
4154.00   0.53998584   0.02261259
4156.00   0.52035558   0.02209660
4158.00   0.57002884   0.02189424
4160.00   0.56561208   0.02225310
4162.00   0.58692467   0.02314276
4164.00   0.62010771   0.02408909
4166.00   0.61171514   0.02396198
4168.00   0.60351509   0.02259050
4170.00   0.65659696   0.02239329
4172.00   0.64923179   0.02182129
4174.00   0.61229408   0.02149982
4176.00   0.58603823   0.02174510
4178.00   0.61383492   0.02201403
4180.00   0.57794690   0.02163262
4182.00   0.59942752   0.02146972
4184.00   0.57079089   0.02093228
4186.00   0.62912506   0.02163491
4188.00   0.63621265   0.02143906
4190.00   0.63475782   0.02166407
4192.00   0.61115623   0.02168681
4194.00   0.60899138   0.02163620
4196.00   0.65593654   0.02164761
4198.00   0.64742243   0.02119815
4200.00   0.67515546   0.02150968
4202.00   0.63666761   0.02142834
4204.00   0.59216100   0.02117930
4206.00   0.68176293   0.02192114
4208.00   0.72767812   0.02231242
4210.00   0.67937666   0.02242029
4212.00   0.69764549   0.02235074
4214.00   0.69902796   0.02219206
4216.00   0.72471207   0.02210983
4218.00   0.75850457   0.02239486
4220.00   0.70200747   0.02203952
4222.00   0.70794594   0.02214687
4224.00   0.69554824   0.02195156
4226.00   0.71231991   0.02184118
4228.00   0.68438417   0.02176700
4230.00   0.75637776   0.02229431
4232.00   0.71662194   0.02249557
4234.00   0.72373337   0.02235893
4236.00   0.74376619   0.02289859
4238.00   0.72628486   0.02289757
4240.00   0.71990973   0.02225447
4242.00   0.74463379   0.02195810
4244.00   0.75167465   0.02338379
4246.00   0.77388990   0.02497538
4248.00   0.76839483   0.02459763
4250.00   0.76856869   0.02282679
4252.00   0.71285594   0.02212515
4254.00   0.72572094   0.02199597
4256.00   0.77585119   0.02230841
4258.00   0.72057009   0.02200294
4260.00   0.78182560   0.02203660
4262.00   0.73649687   0.02165828
4264.00   0.74591911   0.02156632
4266.00   0.72695988   0.02168262
4268.00   0.72432959   0.02161735
4270.00   0.77447200   0.02181278
4272.00   0.72630847   0.02147476
4274.00   0.79337496   0.02207106
4276.00   0.74278390   0.02183047
4278.00   0.72415417   0.02163335
4280.00   0.71856928   0.02157743
4282.00   0.73181528   0.02192217
4284.00   0.74775642   0.02184404
4286.00   0.74804604   0.02181336
4288.00   0.76772618   0.02163887
4290.00   0.75647360   0.02148310
4292.00   0.72520643   0.02151459
4294.00   0.70461589   0.02159928
4296.00   0.69422978   0.02147834
4298.00   0.75852811   0.02153658
4300.00   0.73908031   0.02143990
4302.00   0.73253286   0.02136325
4304.00   0.80096459   0.02201592
4306.00   0.78313559   0.02199989
4308.00   0.69129276   0.02142299
4310.00   0.74968332   0.02186606
4312.00   0.75772190   0.02319938
4314.00   0.75940084   0.02372470
4316.00   0.80564004   0.02312324
4318.00   0.80594677   0.02327384
4320.00   0.78449321   0.02334906
4322.00   0.69833016   0.02275094
4324.00   0.78100872   0.02284285
4326.00   0.77322567   0.02267718
4328.00   0.73758167   0.02177970
4330.00   0.68973720   0.02125888
4332.00   0.72454315   0.02151632
4334.00   0.73254800   0.02163809
4336.00   0.80131745   0.02225939
4338.00   0.74989873   0.02209620
4340.00   0.76893336   0.02237230
4342.00   0.70087886   0.02194889
4344.00   0.80521715   0.02279009
4346.00   0.76048607   0.02325985
4348.00   0.70325679   0.02331978
4350.00   0.76555359   0.02329613
4352.00   0.71501333   0.02284100
4354.00   0.68899107   0.02665762
4356.00   0.82453966   0.04200881
4358.00   0.76924807   0.04857571
4360.00   0.65162694   0.04149939
4362.00   0.65335256   0.03058930
4364.00   0.68161905   0.02438803
4366.00   0.68204033   0.02270604
4368.00   0.65162873   0.02199855
4370.00   0.66869503   0.02207745
4372.00   0.66592741   0.02258504
4374.00   0.63391608   0.02254533
4376.00   0.68894684   0.02217379
4378.00   0.64186502   0.02143687
4380.00   0.54486388   0.02087266
4382.00   0.60846847   0.02088486
4384.00   0.59786248   0.02055036
4386.00   0.54365289   0.02020664
4388.00   0.56901097   0.02001319
4390.00   0.56296110   0.02037671
4392.00   0.56400186   0.02027530
4394.00   0.57772088   0.02021479
4396.00   0.52835917   0.02004983
4398.00   0.53043580   0.02048647
4400.00   0.53722680   0.02059368
4402.00   0.51855719   0.02032819
4404.00   0.50075525   0.01994421
4406.00   0.45753706   0.01962720
4408.00   0.52069354   0.01981270
4410.00   0.41146377   0.01956457
4412.00   0.45733821   0.01991314
4414.00   0.48198485   0.01989793
4416.00   0.47572422   0.01971208
4418.00   0.44135773   0.01941335
4420.00   0.46045351   0.01948387
4422.00   0.43727651   0.01929066
4424.00   0.37353215   0.01879832
4426.00   0.41933700   0.01896671
4428.00   0.41789433   0.01896287
4430.00   0.39980277   0.01893169
4432.00   0.40269747   0.01891850
4434.00   0.38701808   0.01872569
4436.00   0.41473159   0.01867914
4438.00   0.40007174   0.01881023
4440.00   0.39837500   0.01864957
4442.00   0.37838519   0.01838364
4444.00   0.41541457   0.01854912
4446.00   0.35979629   0.01848890
4448.00   0.33463430   0.01805273
4450.00   0.33986720   0.01808932
4452.00   0.36638811   0.01819215
4454.00   0.35085079   0.01807640
4456.00   0.35086957   0.01802808
4458.00   0.34662220   0.01813216
4460.00   0.38974711   0.01829529
4462.00   0.38713875   0.01805704
4464.00   0.39400372   0.01811735
4466.00   0.35833108   0.01788228
4468.00   0.37702727   0.01811098
4470.00   0.34205091   0.01774942
4472.00   0.34795773   0.01795883
4474.00   0.38358152   0.01818191
4476.00   0.36455807   0.01787992
4478.00   0.32822379   0.01775700
4480.00   0.37521499   0.01798988
4482.00   0.38172236   0.01797684
4484.00   0.39734530   0.01806373
4486.00   0.40673733   0.01807032
4488.00   0.38077703   0.01812828
4490.00   0.37042540   0.01827768
4492.00   0.34970638   0.01816614
4494.00   0.40550083   0.01837622
4496.00   0.38567361   0.01834111
4498.00   0.44669884   0.01848517
4500.00   0.45053083   0.01852902
4502.00   0.45831832   0.01857156
4504.00   0.42516419   0.01846573
4506.00   0.42149162   0.01818090
4508.00   0.46266830   0.01847346
4510.00   0.43377635   0.01832722
4512.00   0.41584998   0.01805858
4514.00   0.46615970   0.01810420
4516.00   0.44796154   0.01816830
4518.00   0.50330997   0.01842205
4520.00   0.45223024   0.01830689
4522.00   0.50967044   0.01835423
4524.00   0.46141666   0.01815133
4526.00   0.45666394   0.01816833
4528.00   0.45672193   0.01829088
4530.00   0.47361010   0.01852036
4532.00   0.52545196   0.01856951
4534.00   0.57233191   0.01877193
4536.00   0.55466920   0.01860088
4538.00   0.54188538   0.01859295
4540.00   0.55064470   0.01871439
4542.00   0.55887049   0.01898407
4544.00   0.57801157   0.01907548
4546.00   0.59294534   0.01912195
4548.00   0.59389746   0.01880301
4550.00   0.63743925   0.01892895
4552.00   0.61953998   0.01885031
4554.00   0.62440538   0.01895360
4556.00   0.63872075   0.01919560
4558.00   0.65396243   0.01896408
4560.00   0.67628425   0.01923742
4562.00   0.69031554   0.01927775
4564.00   0.72138041   0.01940321
4566.00   0.69625854   0.01912921
4568.00   0.74426252   0.01941358
4570.00   0.75916702   0.01942968
4572.00   0.72277313   0.01933785
4574.00   0.73339617   0.01946850
4576.00   0.81971407   0.01987055
4578.00   0.78461480   0.01963192
4580.00   0.81338024   0.01977453
4582.00   0.78334475   0.01949192
4584.00   0.85877746   0.01987344
4586.00   0.88698101   0.02000928
4588.00   0.91041201   0.02021790
4590.00   0.92048401   0.02034475
4592.00   0.98961633   0.02075911
4594.00   0.97718400   0.02068731
4596.00   1.01433802   0.02081724
4598.00   1.02347243   0.02078761
4600.00   1.07480025   0.02102462
4602.00   1.05551493   0.02100955
4604.00   1.07515442   0.02106662
4606.00   1.13137627   0.02138659
4608.00   1.15147424   0.02163979
4610.00   1.15612090   0.02160959
4612.00   1.22866476   0.02190232
