# File created by shivutils (I.Shivvers)
# wl(A)   flm    er(optional)
3438.00   0.34635835   0.04810842
3440.00   0.34376231   0.04951680
3442.00   0.42773707   0.05239054
3444.00   0.42081448   0.05162098
3446.00   0.43179168   0.05343009
3448.00   0.37912039   0.05480062
3450.00   0.48836893   0.05764875
3452.00   0.49648945   0.05825731
3454.00   0.50203581   0.05996195
3456.00   0.55385515   0.06026186
3458.00   0.48437971   0.05906273
3460.00   0.35239499   0.05789198
3462.00   0.65474609   0.06060621
3464.00   0.56325817   0.06029145
3466.00   0.42085866   0.05873351
3468.00   0.34525106   0.05739200
3470.00   0.48707142   0.05948605
3472.00   0.39909512   0.05976233
3474.00   0.44407385   0.05945060
3476.00   0.41566616   0.05977404
3478.00   0.41203107   0.06175615
3480.00   0.42177710   0.06425410
3482.00   0.48143405   0.06467808
3484.00   0.50007857   0.06321318
3486.00   0.43598915   0.06277516
3488.00   0.47457913   0.06228270
3490.00   0.54008468   0.06234457
3492.00   0.69415847   0.06349799
3494.00   0.47432327   0.06038220
3496.00   0.53800795   0.06134004
3498.00   0.49264658   0.06105843
3500.00   0.52683521   0.06160615
3502.00   0.40455695   0.05960661
3504.00   0.42264478   0.06079637
3506.00   0.55812192   0.06102502
3508.00   0.43132912   0.06055439
3510.00   0.46172924   0.06044370
3512.00   0.44904828   0.05982346
3514.00   0.44576810   0.05942813
3516.00   0.45133977   0.05915049
3518.00   0.59114531   0.05955502
3520.00   0.47745414   0.05830829
3522.00   0.46566915   0.05811050
3524.00   0.44934504   0.05705165
3526.00   0.59936049   0.05738376
3528.00   0.47052361   0.05684145
3530.00   0.43108742   0.05618330
3532.00   0.45846371   0.05664897
3534.00   0.42263767   0.05598491
3536.00   0.45531894   0.05630133
3538.00   0.52327898   0.05799310
3540.00   0.44788831   0.05799177
3542.00   0.48487703   0.06010077
3544.00   0.51822734   0.06046779
3546.00   0.47524587   0.05878909
3548.00   0.45094088   0.05736786
3550.00   0.53763730   0.05834892
3552.00   0.44744859   0.05685366
3554.00   0.42414072   0.05667494
3556.00   0.43620384   0.05679693
3558.00   0.54027556   0.05748677
3560.00   0.64131908   0.05724513
3562.00   0.50331266   0.05485705
3564.00   0.50629798   0.05366409
3566.00   0.67545654   0.05567655
3568.00   0.57506904   0.05409114
3570.00   0.53224511   0.05260151
3572.00   0.53707746   0.05370630
3574.00   0.57777584   0.05403825
3576.00   0.56759423   0.05268425
3578.00   0.54092696   0.05175543
3580.00   0.54674278   0.05185654
3582.00   0.57159406   0.05102327
3584.00   0.58005978   0.05013406
3586.00   0.55466676   0.04900678
3588.00   0.60859157   0.05037536
3590.00   0.68511877   0.05192714
3592.00   0.69719133   0.05076871
3594.00   0.60980368   0.04899341
3596.00   0.55054321   0.04851415
3598.00   0.57236411   0.04806391
3600.00   0.74426272   0.04969683
3602.00   0.80118657   0.04964774
3604.00   0.66557520   0.04799064
3606.00   0.68474385   0.04753559
3608.00   0.64940074   0.04696754
3610.00   0.62494306   0.04638950
3612.00   0.78033664   0.04978516
3614.00   0.59066687   0.04932092
3616.00   0.73214455   0.04884744
3618.00   0.58444153   0.04645703
3620.00   0.70401964   0.04682822
3622.00   0.66919430   0.04667493
3624.00   0.83419454   0.04810432
3626.00   0.68657342   0.04657031
3628.00   0.66982314   0.04753324
3630.00   0.77664895   0.04890787
3632.00   0.73027084   0.04847946
3634.00   0.68479809   0.04677036
3636.00   0.69442220   0.04688267
3638.00   0.71449353   0.04655576
3640.00   0.75149290   0.04799030
3642.00   0.73358107   0.04875356
3644.00   0.79381623   0.04951219
3646.00   0.77996218   0.05108805
3648.00   0.79027275   0.06332592
3650.00   0.80642698   0.06900643
3652.00   0.84021451   0.06439612
3654.00   0.75644339   0.05821859
3656.00   0.69722273   0.05345998
3658.00   0.65943018   0.04687152
3660.00   0.74028270   0.04821983
3662.00   0.74674621   0.05322322
3664.00   0.81424954   0.05166530
3666.00   0.77702547   0.04497518
3668.00   0.68172784   0.04209971
3670.00   0.82193430   0.04264182
3672.00   0.71422361   0.04123849
3674.00   0.69501905   0.04061000
3676.00   0.72029660   0.04021500
3678.00   0.62466027   0.03864474
3680.00   0.71297390   0.03943564
3682.00   0.72205964   0.03923809
3684.00   0.68449517   0.03899326
3686.00   0.69002313   0.03819435
3688.00   0.76439450   0.03898459
3690.00   0.78087494   0.03957346
3692.00   0.63991566   0.03842712
3694.00   0.66267726   0.03806895
3696.00   0.72681579   0.03856245
3698.00   0.70114452   0.03904812
3700.00   0.70265714   0.03823857
3702.00   0.68046384   0.03831848
3704.00   0.78554294   0.03925365
3706.00   0.80156883   0.03818923
3708.00   0.80558136   0.03839357
3710.00   0.86823535   0.03883225
3712.00   0.80848873   0.03810714
3714.00   0.79001493   0.03761884
3716.00   0.85960110   0.03833154
3718.00   0.90665817   0.03841374
3720.00   0.99028637   0.03865180
3722.00   0.92202924   0.03830085
3724.00   0.88458053   0.03740704
3726.00   0.96999141   0.03848950
3728.00   0.94023684   0.03832427
3730.00   0.86768427   0.03751269
3732.00   0.95826240   0.03844816
3734.00   1.02886500   0.03811032
3736.00   0.94702397   0.03774353
3738.00   1.04955231   0.03880303
3740.00   1.03339901   0.03905844
3742.00   1.10365480   0.03964614
3744.00   1.09822066   0.03866168
3746.00   1.05776042   0.03756509
3748.00   1.04853432   0.03744598
3750.00   1.06449031   0.03760948
3752.00   1.08668081   0.03799688
3754.00   1.15132912   0.03848787
3756.00   1.06382189   0.03748675
3758.00   1.09415426   0.03731738
3760.00   1.05668690   0.03668997
3762.00   1.08461467   0.03685440
3764.00   1.08022867   0.03655500
3766.00   1.07690689   0.03610736
3768.00   1.05356248   0.03587622
3770.00   0.99348078   0.03691222
3772.00   0.90234217   0.03476811
3774.00   1.03639264   0.03583145
3776.00   0.97036800   0.03490383
3778.00   0.83534539   0.03397839
3780.00   0.91682209   0.03437212
3782.00   0.90563924   0.03439682
3784.00   0.88711059   0.03432119
3786.00   0.92006309   0.03387635
3788.00   0.80491329   0.03285732
3790.00   0.82931000   0.03347250
3792.00   0.84092458   0.03333373
3794.00   0.99185769   0.03422976
3796.00   1.34235383   0.03711811
3798.00   1.75902115   0.03994100
3800.00   1.57585224   0.03880599
3802.00   1.05847779   0.03519046
3804.00   0.83032767   0.03253802
3806.00   0.83614442   0.03231646
3808.00   0.82702798   0.03190712
3810.00   0.81454935   0.03177437
3812.00   0.80600584   0.03242367
3814.00   0.77168693   0.03129894
3816.00   0.75526018   0.03123523
3818.00   0.73789882   0.03120760
3820.00   0.71966695   0.03083099
3822.00   0.70286699   0.03052384
3824.00   0.73957586   0.03044893
3826.00   0.76326682   0.03095638
3828.00   0.66344527   0.03075431
3830.00   0.68171035   0.03097777
3832.00   0.69981635   0.03063484
3834.00   0.70540689   0.03038416
3836.00   0.63708750   0.02995038
3838.00   0.64635581   0.02985775
3840.00   0.66901881   0.03014873
3842.00   0.65400893   0.02987129
3844.00   0.64044887   0.02954688
3846.00   0.56318442   0.02856199
3848.00   0.58740856   0.02843431
3850.00   0.64263314   0.02878916
3852.00   0.65548840   0.02881779
3854.00   0.62963972   0.02884182
3856.00   0.55177309   0.02752137
3858.00   0.57417066   0.02744200
3860.00   0.61440835   0.02768854
3862.00   0.57333929   0.02779692
3864.00   0.61628858   0.02815032
3866.00   0.59703063   0.02750911
3868.00   0.65474510   0.02807949
3870.00   0.57483006   0.02705041
3872.00   0.56438096   0.02763471
3874.00   0.58010285   0.02842959
3876.00   0.61781107   0.02829136
3878.00   0.64580083   0.02806036
3880.00   0.59420116   0.02720326
3882.00   0.66898005   0.02743850
3884.00   0.64380275   0.02743041
3886.00   0.67132158   0.02770729
3888.00   0.73055298   0.02803964
3890.00   0.68247277   0.02760206
3892.00   0.69747327   0.02787147
3894.00   0.72422325   0.02840872
3896.00   0.71045697   0.02834747
3898.00   0.66822537   0.02785432
3900.00   0.76381525   0.02871932
3902.00   0.74551112   0.02875082
3904.00   0.79770254   0.03028140
3906.00   0.81604591   0.03290062
3908.00   0.78394840   0.03372930
3910.00   0.85396886   0.03443883
3912.00   0.90012362   0.03445870
3914.00   0.86877011   0.03281146
3916.00   0.87629344   0.03124106
3918.00   0.90415023   0.03035444
3920.00   0.98607769   0.03025708
3922.00   0.96197038   0.02968321
3924.00   0.95512373   0.02940439
3926.00   1.00024026   0.02961615
3928.00   0.98935751   0.02906033
3930.00   1.00378081   0.02928985
3932.00   0.97753931   0.02991035
3934.00   1.11276123   0.03058927
3936.00   1.11777438   0.02981976
3938.00   1.10574550   0.02963760
3940.00   1.19028169   0.03067606
3942.00   1.31491660   0.03230505
3944.00   1.24952770   0.03233828
3946.00   1.21122953   0.03156567
3948.00   1.29086729   0.03140774
3950.00   1.28254143   0.03099669
3952.00   1.31604280   0.03108390
3954.00   1.30788376   0.03081737
3956.00   1.31191454   0.03081190
3958.00   1.27880628   0.03093958
3960.00   1.34208638   0.03214270
3962.00   1.37749121   0.03224880
3964.00   1.35612174   0.03074660
3966.00   1.28829634   0.02970672
3968.00   1.29538669   0.02946400
3970.00   1.34337805   0.02976843
3972.00   1.36703443   0.03034437
3974.00   1.35383116   0.03021176
3976.00   1.41501678   0.03121177
3978.00   1.44397005   0.03102841
3980.00   1.41342337   0.03082795
3982.00   1.41722296   0.03057230
3984.00   1.41776339   0.03039748
3986.00   1.46008942   0.03069585
3988.00   1.41647171   0.03068127
3990.00   1.48017723   0.03101498
3992.00   1.43286261   0.03058901
3994.00   1.46384722   0.03138953
3996.00   1.43344908   0.03192577
3998.00   1.46751317   0.03184468
4000.00   1.51441244   0.03108400
4002.00   1.49395655   0.03069795
4004.00   1.50324604   0.03048923
4006.00   1.43260616   0.03030522
4008.00   1.43525545   0.03062480
4010.00   1.50547899   0.03119113
4012.00   1.48890021   0.03092392
4014.00   1.49484399   0.03085076
4016.00   1.52453274   0.03125140
4018.00   1.57908037   0.03313679
4020.00   1.66347599   0.03544522
4022.00   1.60457799   0.03584377
4024.00   1.57063694   0.03492985
4026.00   1.56731231   0.03339463
4028.00   1.53710857   0.03222426
4030.00   1.52481701   0.03190987
4032.00   1.54017606   0.03151283
4034.00   1.57305639   0.03143626
4036.00   1.55539209   0.03115673
4038.00   1.51827972   0.03070020
4040.00   1.49461537   0.03075748
4042.00   1.48030289   0.03232570
4044.00   1.37284440   0.04360980
4046.00   1.45716890   0.05202996
4048.00   1.44969667   0.04681153
4050.00   1.41221307   0.03479309
4052.00   1.45179151   0.03179164
4054.00   1.32593337   0.03117957
4056.00   1.36632533   0.03077188
4058.00   1.33357724   0.02938962
4060.00   1.25672869   0.02859369
4062.00   1.26962267   0.02841665
4064.00   1.27706777   0.02845670
4066.00   1.20968641   0.02795936
4068.00   1.19642808   0.02778451
4070.00   1.16527502   0.02729080
4072.00   1.17652443   0.02711781
4074.00   1.14985085   0.02774741
4076.00   1.14578754   0.03022517
4078.00   1.15529372   0.03111581
4080.00   1.10657992   0.02973496
4082.00   1.18566625   0.02920798
4084.00   1.14664844   0.02862183
4086.00   1.11810073   0.02803399
4088.00   1.11325149   0.02719694
4090.00   1.13721868   0.02630792
4092.00   1.08739172   0.02581149
4094.00   1.14619194   0.02591261
4096.00   1.09077968   0.02563224
4098.00   1.08865307   0.02554498
4100.00   1.06671692   0.02527856
4102.00   1.10097093   0.02511258
4104.00   1.12096171   0.02507685
4106.00   1.09627465   0.02523648
4108.00   1.10224631   0.02528727
4110.00   1.08448383   0.02513211
4112.00   1.13082265   0.02543247
4114.00   1.13809105   0.02544319
4116.00   1.09237332   0.02500510
4118.00   1.11069509   0.02489215
4120.00   1.13318389   0.02478093
4122.00   1.09181962   0.02460731
4124.00   1.10576529   0.02474661
4126.00   1.12646919   0.02496886
4128.00   1.12446993   0.02494632
4130.00   1.14088684   0.02543906
4132.00   1.14106378   0.02587184
4134.00   1.15078078   0.02586750
4136.00   1.07129901   0.02484096
4138.00   1.16699689   0.02574794
4140.00   1.11952249   0.02580505
4142.00   1.13115832   0.02521827
4144.00   1.04791561   0.02408629
4146.00   1.10934184   0.02434589
4148.00   1.09295315   0.02435064
4150.00   1.04493903   0.02477270
4152.00   1.10569585   0.02556191
4154.00   1.08706921   0.02503498
4156.00   1.07381938   0.02432501
4158.00   1.04609357   0.02402705
4160.00   1.06277194   0.02428467
4162.00   0.96842880   0.02458079
4164.00   1.02436172   0.02568831
4166.00   1.04585156   0.02551039
4168.00   0.98759930   0.02414448
4170.00   1.00063963   0.02365531
4172.00   0.99210351   0.02319375
4174.00   0.98516869   0.02285636
4176.00   0.99888512   0.02310519
4178.00   1.02461357   0.02341796
4180.00   1.01590086   0.02320667
4182.00   1.01912210   0.02278001
4184.00   0.98215862   0.02256165
4186.00   1.00457821   0.02265189
4188.00   1.02495250   0.02278888
4190.00   1.00988675   0.02271275
4192.00   0.99753099   0.02307031
4194.00   1.03773449   0.02300544
4196.00   0.98471196   0.02232381
4198.00   1.03183354   0.02231299
4200.00   1.00090266   0.02225868
4202.00   1.02109052   0.02226733
4204.00   1.04567613   0.02257352
4206.00   0.98943824   0.02255932
4208.00   1.02790247   0.02291010
4210.00   1.03945472   0.02318139
4212.00   1.02391844   0.02301194
4214.00   1.06059009   0.02295862
4216.00   1.11881985   0.02308797
4218.00   1.10008657   0.02301313
4220.00   1.10881357   0.02298951
4222.00   1.07758544   0.02273790
4224.00   1.11379948   0.02282638
4226.00   1.14549983   0.02292787
4228.00   1.12950880   0.02296548
4230.00   1.17533776   0.02353026
4232.00   1.13602165   0.02350202
4234.00   1.19344545   0.02389045
4236.00   1.17941277   0.02391906
4238.00   1.22271227   0.02428649
4240.00   1.15323084   0.02342804
4242.00   1.19118211   0.02334104
4244.00   1.23706380   0.02506243
4246.00   1.19528756   0.02634599
4248.00   1.22823378   0.02586437
4250.00   1.17375471   0.02403743
4252.00   1.26475439   0.02367671
4254.00   1.26916687   0.02369332
4256.00   1.22658694   0.02365978
4258.00   1.22960700   0.02346840
4260.00   1.22652030   0.02329548
4262.00   1.21688950   0.02318998
4264.00   1.23438203   0.02323905
4266.00   1.20759437   0.02310308
4268.00   1.23508910   0.02321297
4270.00   1.17693326   0.02282411
4272.00   1.23728067   0.02317000
4274.00   1.27877921   0.02338860
4276.00   1.20129449   0.02306990
4278.00   1.21535674   0.02315578
4280.00   1.19870207   0.02324235
4282.00   1.14261638   0.02294970
4284.00   1.18078080   0.02307622
4286.00   1.23293862   0.02305840
4288.00   1.20813241   0.02291974
4290.00   1.14905770   0.02267159
4292.00   1.17437744   0.02274540
4294.00   1.16755000   0.02288440
4296.00   1.15070209   0.02274390
4298.00   1.17692621   0.02269843
4300.00   1.21366049   0.02263314
4302.00   1.21653556   0.02261507
4304.00   1.18012030   0.02268971
4306.00   1.11471411   0.02247671
4308.00   1.14823439   0.02257146
4310.00   1.15647667   0.02290389
4312.00   1.18248072   0.02422192
4314.00   1.13755138   0.02465922
4316.00   1.17970257   0.02413325
4318.00   1.12325450   0.02386762
4320.00   1.16295342   0.02428209
4322.00   1.11579217   0.02411919
4324.00   1.13964406   0.02379450
4326.00   1.18098755   0.02366921
4328.00   1.12218849   0.02293028
4330.00   1.15904011   0.02298828
4332.00   1.09848060   0.02251797
4334.00   1.15873686   0.02284547
4336.00   1.19402552   0.02335757
4338.00   1.10394378   0.02316202
4340.00   1.15693020   0.02345936
4342.00   1.11468093   0.02331262
4344.00   1.08496617   0.02362917
4346.00   1.14532889   0.02467752
4348.00   1.08808284   0.02466044
4350.00   1.15122185   0.02442846
4352.00   1.11686849   0.02404503
4354.00   1.06665621   0.02833120
4356.00   1.09915187   0.04367566
4358.00   1.27099571   0.05101355
4360.00   1.12428612   0.04382795
4362.00   1.15405274   0.03215522
4364.00   1.12914235   0.02597554
4366.00   1.14720464   0.02495861
4368.00   1.20054575   0.02468652
4370.00   1.21692518   0.02466183
4372.00   1.16911576   0.02492193
4374.00   1.17350449   0.02517188
4376.00   1.19147686   0.02480017
4378.00   1.09748338   0.02380664
4380.00   1.20230935   0.02386047
4382.00   1.18985150   0.02355132
4384.00   1.20929760   0.02338106
4386.00   1.15954427   0.02314413
4388.00   1.10602250   0.02299866
4390.00   1.15620549   0.02317023
4392.00   1.11758562   0.02300899
4394.00   1.15858384   0.02306419
4396.00   1.05044110   0.02265970
4398.00   1.01740693   0.02304449
4400.00   1.11339356   0.02364379
4402.00   1.07100315   0.02322373
4404.00   1.03802411   0.02276379
4406.00   1.02030700   0.02245966
4408.00   1.02521494   0.02250789
4410.00   1.04079950   0.02265695
4412.00   0.95012921   0.02242939
4414.00   0.92280202   0.02266940
4416.00   0.94169125   0.02269177
4418.00   0.97350754   0.02251708
4420.00   1.00536665   0.02248034
4422.00   1.01234472   0.02240946
4424.00   0.94794875   0.02200552
4426.00   0.91170604   0.02184998
4428.00   0.92263846   0.02180774
4430.00   0.89749123   0.02166884
4432.00   0.85658600   0.02146693
4434.00   0.87253448   0.02145849
4436.00   0.86693830   0.02145959
4438.00   0.82978000   0.02126735
4440.00   0.84496420   0.02123641
4442.00   0.83540441   0.02112065
4444.00   0.79809371   0.02092985
4446.00   0.81205896   0.02090782
4448.00   0.79719084   0.02084610
4450.00   0.79101279   0.02070088
4452.00   0.76415510   0.02059134
4454.00   0.79019088   0.02070639
4456.00   0.78362720   0.02063705
4458.00   0.71636306   0.02031181
4460.00   0.79198821   0.02064648
4462.00   0.77072729   0.02050600
4464.00   0.75679751   0.02042905
4466.00   0.71453736   0.02022304
4468.00   0.69044139   0.01998044
4470.00   0.70498240   0.02009029
4472.00   0.75965808   0.02038488
4474.00   0.72566532   0.02015731
4476.00   0.67255790   0.01996627
4478.00   0.70281167   0.02005974
4480.00   0.72051478   0.02006579
4482.00   0.71573500   0.02008040
4484.00   0.67135528   0.01988711
4486.00   0.68283203   0.01997736
4488.00   0.67083121   0.01983081
4490.00   0.68231992   0.02001238
4492.00   0.70747251   0.02029218
4494.00   0.72860258   0.02047106
4496.00   0.74274585   0.02045325
4498.00   0.68642939   0.02026632
4500.00   0.71782213   0.02019637
4502.00   0.67697425   0.01993595
4504.00   0.73217246   0.02012743
4506.00   0.75938193   0.02024470
4508.00   0.73432000   0.02007131
4510.00   0.70162290   0.01970911
4512.00   0.72410332   0.01982565
4514.00   0.74533787   0.01986281
4516.00   0.75056431   0.01976698
4518.00   0.73573597   0.01961146
4520.00   0.77782011   0.01980120
4522.00   0.76180967   0.01964981
4524.00   0.77683357   0.01960847
4526.00   0.76012279   0.01950226
4528.00   0.76842268   0.01954292
4530.00   0.78164749   0.01956333
4532.00   0.83546745   0.01972096
4534.00   0.80489568   0.01960689
4536.00   0.84067372   0.01969733
4538.00   0.83248956   0.01968395
4540.00   0.84470094   0.01983031
4542.00   0.87657061   0.02011969
4544.00   0.85654758   0.02012142
4546.00   0.83066293   0.01984813
4548.00   0.82892934   0.01969350
4550.00   0.82924894   0.01946530
4552.00   0.86583916   0.01946958
4554.00   0.85578091   0.01954763
4556.00   0.88132981   0.01972825
4558.00   0.84886800   0.01959527
4560.00   0.87341188   0.01954803
4562.00   0.91236244   0.01964073
4564.00   0.91703291   0.01957616
4566.00   0.88677978   0.01928740
4568.00   0.89072910   0.01937492
4570.00   0.93293174   0.01964395
4572.00   0.93395117   0.01970178
4574.00   0.93644124   0.01974616
4576.00   0.95805619   0.01977164
4578.00   0.99824199   0.01979211
4580.00   0.97825892   0.01956901
4582.00   0.99946443   0.01951042
4584.00   1.03180462   0.01958767
4586.00   1.02457947   0.01955055
4588.00   1.05543556   0.01975957
4590.00   1.01757934   0.01961222
4592.00   1.05727645   0.01981617
4594.00   1.12257398   0.02011653
4596.00   1.11924649   0.02017104
4598.00   1.14462578   0.02041311
4600.00   1.16391473   0.02007999
4602.00   1.18531726   0.02040899
4604.00   1.21230014   0.02024430
4606.00   1.25916531   0.02044271
4608.00   1.24362804   0.02045176
