# File created by shivutils (I.Shivvers)
# 
# wl(A)   flm    er(optional)
3440.00   0.99663925   0.04211347
3442.00   1.02035940   0.04298057
3444.00   1.08142424   0.04375530
3446.00   1.03948307   0.04415843
3448.00   1.00887072   0.04470653
3450.00   1.13763690   0.04712187
3452.00   1.09078753   0.04641961
3454.00   1.13278902   0.04730552
3456.00   1.11237109   0.04655184
3458.00   1.12709379   0.04621162
3460.00   1.16651189   0.04648151
3462.00   1.16989696   0.04680550
3464.00   1.21945298   0.04710060
3466.00   1.11178374   0.04622503
3468.00   1.14444518   0.04651541
3470.00   1.14399874   0.04624806
3472.00   1.13642061   0.04571458
3474.00   1.15858555   0.04572592
3476.00   1.16611528   0.04646515
3478.00   1.10701752   0.04741689
3480.00   1.10840762   0.04759468
3482.00   1.11042190   0.04728930
3484.00   1.09299755   0.04702041
3486.00   1.13220584   0.04733801
3488.00   1.11863542   0.04603708
3490.00   1.20640719   0.04700979
3492.00   1.16758013   0.04618976
3494.00   1.20204926   0.04625816
3496.00   1.13517129   0.04528189
3498.00   1.23118043   0.04652251
3500.00   1.09388947   0.04546495
3502.00   1.14053404   0.04610949
3504.00   1.17991638   0.04615359
3506.00   1.18773139   0.04606878
3508.00   1.24566019   0.04668882
3510.00   1.22043729   0.04612684
3512.00   1.17778349   0.04503021
3514.00   1.21711946   0.04555063
3516.00   1.25030398   0.04650283
3518.00   1.23411846   0.04585866
3520.00   1.22252679   0.04505570
3522.00   1.20841253   0.04453977
3524.00   1.15905654   0.04330027
3526.00   1.30311346   0.04482377
3528.00   1.23809552   0.04459048
3530.00   1.30834484   0.04531660
3532.00   1.20682490   0.04421438
3534.00   1.25673652   0.04466606
3536.00   1.35469007   0.04569862
3538.00   1.25404441   0.04512727
3540.00   1.23807812   0.04544409
3542.00   1.24219334   0.04588363
3544.00   1.32282770   0.04700153
3546.00   1.32389498   0.04581220
3548.00   1.27390194   0.04491423
3550.00   1.32457292   0.04536681
3552.00   1.26042295   0.04439832
3554.00   1.25610888   0.04373538
3556.00   1.29384720   0.04426556
3558.00   1.30410051   0.04388539
3560.00   1.27351570   0.04274730
3562.00   1.24619365   0.04203390
3564.00   1.28086400   0.04179010
3566.00   1.30519712   0.04178782
3568.00   1.25773287   0.04079640
3570.00   1.26414108   0.04092069
3572.00   1.38127530   0.04208673
3574.00   1.33707511   0.04133731
3576.00   1.30733466   0.04071829
3578.00   1.43472993   0.04118646
3580.00   1.36781621   0.03991048
3582.00   1.25651681   0.03982917
3584.00   1.30548370   0.03824379
3586.00   1.39554715   0.03923996
3588.00   1.32577527   0.03936528
3590.00   1.36094832   0.03965591
3592.00   1.40054297   0.03946536
3594.00   1.32266462   0.03885967
3596.00   1.25647068   0.03793424
3598.00   1.31303656   0.03847484
3600.00   1.39619446   0.03897635
3602.00   1.40934718   0.03832612
3604.00   1.36572313   0.03778064
3606.00   1.35191238   0.03710382
3608.00   1.42396355   0.03748565
3610.00   1.44477153   0.03814707
3612.00   1.40964544   0.03867745
3614.00   1.46543169   0.03917636
3616.00   1.50327241   0.03842675
3618.00   1.52130163   0.03802392
3620.00   1.42719889   0.03706005
3622.00   1.47353244   0.03764469
3624.00   1.52433515   0.03822455
3626.00   1.61982071   0.03908160
3628.00   1.55182540   0.03862360
3630.00   1.55897629   0.03874870
3632.00   1.58408141   0.03811593
3634.00   1.54246938   0.03772075
3636.00   1.58869743   0.03817513
3638.00   1.60769296   0.03817605
3640.00   1.61399353   0.03873748
3642.00   1.60200155   0.03902059
3644.00   1.64390552   0.03896698
3646.00   1.56380594   0.04048987
3648.00   1.60563195   0.04667146
3650.00   1.57265258   0.04711525
3652.00   1.54340017   0.04370651
3654.00   1.57516778   0.04237723
3656.00   1.65825915   0.04012976
3658.00   1.65414429   0.03843169
3660.00   1.71554112   0.04022036
3662.00   1.76003253   0.04180314
3664.00   1.74577463   0.03943258
3666.00   1.74186409   0.03721064
3668.00   1.70331728   0.03622644
3670.00   1.68668044   0.03588702
3672.00   1.73913848   0.03598242
3674.00   1.69999683   0.03560417
3676.00   1.61224926   0.03572664
3678.00   1.68132389   0.03506373
3680.00   1.66136777   0.03430288
3682.00   1.68072355   0.03449962
3684.00   1.70427358   0.03426894
3686.00   1.73091018   0.03408687
3688.00   1.72117519   0.03420127
3690.00   1.71125031   0.03442186
3692.00   1.72689581   0.03447631
3694.00   1.72521591   0.03406236
3696.00   1.68887770   0.03391219
3698.00   1.71116805   0.03421983
3700.00   1.68845022   0.03400654
3702.00   1.63474023   0.03337762
3704.00   1.63051844   0.03272789
3706.00   1.60293758   0.03236470
3708.00   1.69234014   0.03281603
3710.00   1.61918879   0.03236863
3712.00   1.60948014   0.03231635
3714.00   1.65527737   0.03262802
3716.00   1.60220265   0.03192263
3718.00   1.58404756   0.03127942
3720.00   1.59833848   0.03122790
3722.00   1.63059604   0.03139655
3724.00   1.56909037   0.03112036
3726.00   1.62896562   0.03161843
3728.00   1.56417954   0.03100687
3730.00   1.55898368   0.03087809
3732.00   1.58634889   0.03070565
3734.00   1.54109430   0.03003967
3736.00   1.52786887   0.03008164
3738.00   1.58859539   0.03110766
3740.00   1.58247626   0.03115541
3742.00   1.58453548   0.03074044
3744.00   1.57825351   0.03016685
3746.00   1.63509607   0.03013775
3748.00   1.60959339   0.02992292
3750.00   1.61044967   0.03016001
3752.00   1.58129895   0.03035151
3754.00   1.61004782   0.03048183
3756.00   1.67192984   0.03055301
3758.00   1.60996127   0.02983723
3760.00   1.65907836   0.03027390
3762.00   1.71892345   0.03047970
3764.00   1.64051569   0.02991791
3766.00   1.63367105   0.02966725
3768.00   1.65746200   0.02982777
3770.00   1.65102518   0.03013243
3772.00   1.65098405   0.03013811
3774.00   1.61052930   0.02993875
3776.00   1.59995186   0.02967114
3778.00   1.64873004   0.03005521
3780.00   1.68332553   0.03023464
3782.00   1.61974752   0.02996704
3784.00   1.59765589   0.02962588
3786.00   1.61040914   0.02915819
3788.00   1.62095642   0.02934521
3790.00   1.57452130   0.02925668
3792.00   1.54707587   0.02883889
3794.00   1.52154589   0.02841753
3796.00   1.51741600   0.02809405
3798.00   1.52676129   0.02807529
3800.00   1.49602878   0.02817525
3802.00   1.43846202   0.02809226
3804.00   1.38789201   0.02754798
3806.00   1.29067349   0.02672026
3808.00   1.30294907   0.02679756
3810.00   1.24462914   0.02638830
3812.00   1.25291467   0.02617628
3814.00   1.18189156   0.02546480
3816.00   1.13596976   0.02503095
3818.00   1.17738926   0.02518835
3820.00   1.11952710   0.02453543
3822.00   1.04033601   0.02397718
3824.00   1.03908598   0.02368416
3826.00   1.11814940   0.02433403
3828.00   1.06725895   0.02435013
3830.00   1.05668581   0.02420456
3832.00   1.01201952   0.02347269
3834.00   0.95969802   0.02294268
3836.00   0.93308115   0.02259753
3838.00   0.94260687   0.02253091
3840.00   0.95854640   0.02274916
3842.00   1.00189734   0.02330077
3844.00   1.05496109   0.02358712
3846.00   1.06535769   0.02356657
3848.00   1.00439239   0.02286731
3850.00   0.97571367   0.02243201
3852.00   1.04981124   0.02309146
3854.00   1.46900690   0.02573430
3856.00   2.00499225   0.02885951
3858.00   2.17353773   0.03015642
3860.00   1.76299262   0.02748512
3862.00   1.13790035   0.02475421
3864.00   0.93614322   0.02187594
3866.00   0.92311233   0.02167922
3868.00   0.95654565   0.02166589
3870.00   1.00366652   0.02188502
3872.00   1.03677309   0.02261947
3874.00   0.98457146   0.02272822
3876.00   0.94059825   0.02177206
3878.00   0.91991162   0.02131740
3880.00   0.90383643   0.02102300
3882.00   0.94180322   0.02108939
3884.00   0.99875265   0.02174003
3886.00   1.04091442   0.02189642
3888.00   0.99694914   0.02152529
3890.00   1.03050709   0.02201962
3892.00   1.01419079   0.02206476
3894.00   1.07745790   0.02259171
3896.00   1.05754781   0.02262535
3898.00   0.94997805   0.02188010
3900.00   0.97732121   0.02200417
3902.00   0.94997346   0.02191750
3904.00   1.01130641   0.02295494
3906.00   1.05276608   0.02456956
3908.00   1.06251061   0.02513926
3910.00   1.11438537   0.02563855
3912.00   1.14795649   0.02571198
3914.00   1.18937278   0.02482760
3916.00   1.13799703   0.02374893
3918.00   1.15891933   0.02341741
3920.00   1.12462711   0.02264347
3922.00   1.07696307   0.02222130
3924.00   1.07478034   0.02211720
3926.00   1.04680848   0.02147956
3928.00   1.01412439   0.02086425
3930.00   0.99860722   0.02078523
3932.00   0.95862889   0.02080609
3934.00   1.05640662   0.02127143
3936.00   1.14447331   0.02146169
3938.00   1.20117569   0.02210758
3940.00   1.21130490   0.02257344
3942.00   1.24957931   0.02322048
3944.00   1.25820804   0.02357397
3946.00   1.25252020   0.02324418
3948.00   1.27403021   0.02308663
3950.00   1.31375837   0.02329006
3952.00   1.34095550   0.02335920
3954.00   1.32416070   0.02310786
3956.00   1.31251502   0.02297136
3958.00   1.34491682   0.02331573
3960.00   1.33319318   0.02361005
3962.00   1.30479562   0.02286150
3964.00   1.29432285   0.02194319
3966.00   1.26907277   0.02142650
3968.00   1.25244784   0.02113016
3970.00   1.30918503   0.02170353
3972.00   1.28085518   0.02190179
3974.00   1.36419570   0.02257528
3976.00   1.42954981   0.02306613
3978.00   1.53490520   0.02381187
3980.00   1.59506059   0.02419953
3982.00   1.65907216   0.02444905
3984.00   1.70165980   0.02453676
3986.00   1.75793767   0.02500077
3988.00   1.76068377   0.02512411
3990.00   1.77948833   0.02512359
3992.00   1.81672680   0.02534177
3994.00   1.85107672   0.02578989
3996.00   1.88773286   0.02622266
3998.00   1.90403330   0.02594831
4000.00   1.91689754   0.02574823
4002.00   2.01246786   0.02608864
4004.00   2.13278699   0.02640432
4006.00   2.03046632   0.02610032
4008.00   1.97920275   0.02605849
4010.00   1.95550084   0.02601866
4012.00   2.01867366   0.02614655
4014.00   2.01206946   0.02595028
4016.00   1.97812617   0.02593630
4018.00   1.93834925   0.02677734
4020.00   1.87143195   0.02736596
4022.00   1.88232112   0.02743768
4024.00   1.94093895   0.02721667
4026.00   1.99085617   0.02655423
4028.00   1.93672383   0.02590077
4030.00   1.95954704   0.02586879
4032.00   1.99708366   0.02574345
4034.00   2.03932357   0.02587678
4036.00   2.02133965   0.02578270
4038.00   2.11174655   0.02616659
4040.00   2.08007884   0.02599111
4042.00   2.12937927   0.02704228
4044.00   2.19897652   0.03373770
4046.00   2.19610953   0.03749874
4048.00   2.16831374   0.03210127
4050.00   2.16101313   0.02719399
4052.00   2.23758459   0.02711116
4054.00   2.16749644   0.02685626
4056.00   2.17355680   0.02633844
4058.00   2.21000338   0.02610247
4060.00   2.21762609   0.02595627
4062.00   2.18416190   0.02567185
4064.00   2.16428256   0.02559667
4066.00   2.09706521   0.02534802
4068.00   1.99206412   0.02474718
4070.00   1.82271147   0.02377850
4072.00   1.96725512   0.02431213
4074.00   2.08440471   0.02528757
4076.00   2.13711548   0.02679208
4078.00   2.16661024   0.02694141
4080.00   2.10778570   0.02606466
4082.00   2.10597754   0.02587548
4084.00   2.14751267   0.02570289
4086.00   2.07968163   0.02534212
4088.00   2.04954195   0.02479319
4090.00   2.06047297   0.02438518
4092.00   2.03514171   0.02420842
4094.00   1.93384194   0.02367492
4096.00   1.92380762   0.02348480
4098.00   1.94993877   0.02356594
4100.00   1.86332011   0.02282180
4102.00   1.72700512   0.02199393
4104.00   1.64775920   0.02173798
4106.00   1.60855365   0.02177389
4108.00   1.71303010   0.02219325
4110.00   1.70247722   0.02205228
4112.00   1.67399323   0.02203231
4114.00   1.71539307   0.02224733
4116.00   1.72345889   0.02222317
4118.00   1.78079700   0.02219342
4120.00   1.77271223   0.02214252
4122.00   1.76110017   0.02209694
4124.00   1.83538258   0.02245857
4126.00   1.82265890   0.02238369
4128.00   1.87570298   0.02254748
4130.00   1.85431314   0.02265159
4132.00   1.86059964   0.02287191
4134.00   1.87297595   0.02277418
4136.00   1.88029039   0.02264222
4138.00   1.87627828   0.02289243
4140.00   1.87090480   0.02291979
4142.00   1.87262404   0.02240089
4144.00   1.87169540   0.02210956
4146.00   1.92249441   0.02240770
4148.00   1.90144897   0.02238961
4150.00   1.92205775   0.02279402
4152.00   1.94598234   0.02308840
4154.00   1.93851674   0.02271126
4156.00   1.95362747   0.02255142
4158.00   1.99485314   0.02270705
4160.00   1.95332706   0.02263661
4162.00   1.96099949   0.02299673
4164.00   1.97744679   0.02358017
4166.00   2.01199675   0.02338100
4168.00   2.04265523   0.02292137
4170.00   2.05375886   0.02287541
4172.00   2.05761051   0.02259767
4174.00   2.06631947   0.02254505
4176.00   2.09940934   0.02279286
4178.00   2.15924025   0.02312172
4180.00   2.16462755   0.02298023
4182.00   2.12434649   0.02263825
4184.00   2.11772180   0.02261712
4186.00   2.07806325   0.02243088
4188.00   2.09702539   0.02239119
4190.00   2.13483334   0.02260797
4192.00   2.17206287   0.02285218
4194.00   2.11664891   0.02250433
4196.00   2.13016343   0.02232080
4198.00   2.11605930   0.02219500
4200.00   2.14950776   0.02232372
4202.00   2.14707303   0.02233379
4204.00   2.18403697   0.02258850
4206.00   2.14340377   0.02250525
4208.00   2.17045474   0.02269593
4210.00   2.21671081   0.02290528
4212.00   2.24683094   0.02299486
4214.00   2.19950414   0.02255660
4216.00   2.22764254   0.02263548
4218.00   2.16880703   0.02240048
4220.00   2.16075850   0.02235304
4222.00   2.17730689   0.02227529
4224.00   2.20489693   0.02219694
4226.00   2.18519497   0.02199602
4228.00   2.19478011   0.02217311
4230.00   2.13583732   0.02216019
4232.00   2.16733313   0.02232001
4234.00   2.10719895   0.02199605
4236.00   2.08815384   0.02194224
4238.00   2.06021023   0.02189440
4240.00   2.00281262   0.02133818
4242.00   2.00427675   0.02124998
4244.00   2.12155390   0.02249055
4246.00   2.12642956   0.02327362
4248.00   2.01620269   0.02207678
4250.00   1.97556090   0.02109552
4252.00   2.05607414   0.02129824
4254.00   2.06794739   0.02139082
4256.00   2.05652404   0.02140083
4258.00   2.06538296   0.02128880
4260.00   2.02987695   0.02093255
4262.00   2.06526875   0.02115672
4264.00   2.04924655   0.02108266
4266.00   2.03612280   0.02098154
4268.00   2.03843832   0.02093709
4270.00   2.03366041   0.02080033
4272.00   2.05821705   0.02084258
4274.00   2.04243946   0.02084503
4276.00   2.00562978   0.02088131
4278.00   1.97918832   0.02080088
4280.00   2.03887320   0.02095827
4282.00   2.08423901   0.02119108
4284.00   2.06038642   0.02097321
4286.00   2.05458522   0.02081107
4288.00   2.01755619   0.02063023
4290.00   2.02824473   0.02061932
4292.00   2.03475499   0.02078972
4294.00   2.03369045   0.02076928
4296.00   2.01877284   0.02063699
4298.00   1.97245741   0.02029406
4300.00   1.99248743   0.02024533
4302.00   1.98753154   0.02018285
4304.00   2.02622318   0.02044998
4306.00   2.03129029   0.02054866
4308.00   2.02529716   0.02043372
4310.00   2.03886199   0.02064147
4312.00   2.03109384   0.02135022
4314.00   1.99657857   0.02151923
4316.00   2.01237679   0.02114525
4318.00   1.92892134   0.02093985
4320.00   1.95692182   0.02126962
4322.00   1.93514180   0.02089015
4324.00   1.92197800   0.02060322
4326.00   1.91774535   0.02050002
4328.00   1.95651186   0.02044716
4330.00   1.97107399   0.02047963
4332.00   1.89534974   0.02022207
4334.00   1.91754127   0.02030623
4336.00   1.92719889   0.02036161
4338.00   1.91776836   0.02029257
4340.00   1.91976070   0.02021763
4342.00   1.86790824   0.02009462
4344.00   1.80903053   0.02020908
4346.00   1.81720078   0.02069581
4348.00   1.78226757   0.02065040
4350.00   1.79943585   0.02022734
4352.00   1.80508614   0.02006196
4354.00   1.86120665   0.02253919
4356.00   1.93774843   0.03130605
4358.00   1.83706892   0.03550347
4360.00   1.70926034   0.02837027
4362.00   1.77283299   0.02190377
4364.00   1.74203289   0.02059444
4366.00   1.76680815   0.02034014
4368.00   1.78646314   0.02022529
4370.00   1.71795917   0.01990254
4372.00   1.68565261   0.02005765
4374.00   1.65287101   0.02005576
4376.00   1.67686081   0.01983560
4378.00   1.73819363   0.01970788
4380.00   1.73297608   0.01956963
4382.00   1.66991925   0.01911207
4384.00   1.67316961   0.01895385
4386.00   1.61274922   0.01881669
4388.00   1.64664042   0.01900692
4390.00   1.68172443   0.01920975
4392.00   1.67348528   0.01914808
4394.00   1.64028275   0.01892806
4396.00   1.66468799   0.01903592
4398.00   1.61869812   0.01919405
4400.00   1.61086810   0.01934671
4402.00   1.58274150   0.01895435
4404.00   1.58235264   0.01864873
4406.00   1.59597147   0.01873935
4408.00   1.57537818   0.01878274
4410.00   1.55666983   0.01873873
4412.00   1.62437844   0.01905758
4414.00   1.59333563   0.01912368
4416.00   1.56792688   0.01900634
4418.00   1.54199398   0.01867374
4420.00   1.45871639   0.01829637
4422.00   1.45537627   0.01822533
4424.00   1.46948969   0.01823717
4426.00   1.42488873   0.01807765
4428.00   1.44315636   0.01809205
4430.00   1.42417407   0.01805560
4432.00   1.43567479   0.01804296
4434.00   1.43353927   0.01794020
4436.00   1.41040719   0.01784846
4438.00   1.37762046   0.01782900
4440.00   1.32028770   0.01748367
4442.00   1.36486697   0.01760338
4444.00   1.39231062   0.01776152
4446.00   1.36924124   0.01764665
4448.00   1.34083259   0.01749178
4450.00   1.34215844   0.01748561
4452.00   1.31092894   0.01729150
4454.00   1.33424127   0.01732473
4456.00   1.36165118   0.01739155
4458.00   1.34876072   0.01732201
4460.00   1.35341251   0.01734284
4462.00   1.41530514   0.01759254
4464.00   1.41296721   0.01762736
4466.00   1.43053365   0.01768800
4468.00   1.46904778   0.01778367
4470.00   1.48597205   0.01782105
4472.00   1.45988572   0.01779759
4474.00   1.42134607   0.01766173
4476.00   1.41606760   0.01762068
4478.00   1.41384244   0.01756009
4480.00   1.44421673   0.01762862
4482.00   1.45991182   0.01768962
4484.00   1.42604053   0.01762765
4486.00   1.42877817   0.01766133
4488.00   1.41241562   0.01755022
4490.00   1.57628238   0.01817169
4492.00   1.72514808   0.01883262
4494.00   1.63134396   0.01846285
4496.00   1.44132459   0.01768018
4498.00   1.40147281   0.01762633
4500.00   1.45834053   0.01777999
4502.00   1.45284021   0.01765363
4504.00   1.41889620   0.01759478
4506.00   1.48084164   0.01777956
4508.00   1.48917973   0.01774274
4510.00   1.51045012   0.01777281
4512.00   1.54962945   0.01792729
4514.00   1.55727899   0.01786456
4516.00   1.55554020   0.01779004
4518.00   1.56543601   0.01786407
4520.00   1.54122663   0.01778916
4522.00   1.56673229   0.01781827
4524.00   1.55995429   0.01769776
4526.00   1.58011782   0.01765953
4528.00   1.56608963   0.01761787
4530.00   1.58740342   0.01772498
4532.00   1.60911858   0.01782267
4534.00   1.66253543   0.01800319
4536.00   1.55085480   0.01756987
4538.00   1.51757467   0.01742271
4540.00   1.51297212   0.01742508
4542.00   1.54266119   0.01765088
4544.00   1.55371678   0.01771480
4546.00   1.61230946   0.01780939
4548.00   1.59620464   0.01761971
4550.00   1.58653164   0.01751369
4552.00   1.60544908   0.01755996
4554.00   1.59628367   0.01755384
4556.00   1.56610703   0.01746228
4558.00   1.53773773   0.01740466
4560.00   1.54881668   0.01735000
4562.00   1.54039073   0.01724641
4564.00   1.54785645   0.01722781
4566.00   1.58919811   0.01733164
4568.00   1.57757688   0.01731369
4570.00   1.53187239   0.01709956
4572.00   1.51618481   0.01713471
4574.00   1.54774284   0.01726348
4576.00   1.52360511   0.01714340
4578.00   1.55823600   0.01720080
4580.00   1.56050825   0.01708968
4582.00   1.54105079   0.01692747
4584.00   1.56002176   0.01693905
4586.00   1.53179121   0.01691312
4588.00   1.56473732   0.01709248
4590.00   1.53413200   0.01692399
4592.00   1.56424570   0.01750603
4594.00   1.58666778   0.01747345
4596.00   1.55389285   0.01699603
4598.00   1.57172203   0.01698196
4600.00   1.61769187   0.01702275
4602.00   1.64140856   0.01715649
4604.00   1.64954591   0.01721463
4606.00   1.64925969   0.01724700
4608.00   1.68735492   0.01745705
4610.00   1.65586603   0.01729965
