# File created by shivutils (I.Shivvers)
# 
# wl(A)   flm    er(optional)
3430.00   0.82563609   0.08197023
3432.00   0.74498045   0.08221469
3434.00   0.86743057   0.08394465
3436.00   0.63493454   0.07971378
3438.00   0.70439357   0.08135389
3440.00   0.80841124   0.08369965
3442.00   0.73934692   0.08143230
3444.00   0.76769024   0.08293743
3446.00   0.81867397   0.08449043
3448.00   0.74685669   0.08187295
3450.00   0.69655770   0.08303758
3452.00   0.87839586   0.08800228
3454.00   0.75002426   0.08433306
3456.00   0.78134525   0.08481912
3458.00   0.89915055   0.08618818
3460.00   0.83491087   0.08375969
3462.00   0.71357965   0.08009232
3464.00   0.78650469   0.08094722
3466.00   0.70070517   0.08001482
3468.00   0.93587577   0.08526043
3470.00   0.80612487   0.08064102
3472.00   0.80947304   0.08192468
3474.00   0.71369463   0.07890771
3476.00   0.82610005   0.08184765
3478.00   0.73656428   0.08274692
3480.00   0.76076382   0.08294909
3482.00   0.68511981   0.08201720
3484.00   0.84685636   0.08353882
3486.00   0.67926353   0.07964175
3488.00   0.70804465   0.07847404
3490.00   0.77879071   0.07964157
3492.00   0.70132422   0.07769220
3494.00   0.69384480   0.07654908
3496.00   0.76175666   0.07814907
3498.00   0.68257111   0.07559779
3500.00   0.65255499   0.07247386
3502.00   0.69702488   0.07464240
3504.00   0.83085924   0.07684255
3506.00   0.77488559   0.07580843
3508.00   0.62596858   0.07195096
3510.00   0.66375309   0.07396781
3512.00   0.67162067   0.07189400
3514.00   0.71894395   0.07165988
3516.00   0.90757954   0.07612085
3518.00   0.80578029   0.07323197
3520.00   0.82155371   0.07227027
3522.00   0.76462859   0.07169812
3524.00   0.73209238   0.06998323
3526.00   0.92515045   0.07380749
3528.00   0.67151845   0.06872112
3530.00   0.78098440   0.06970058
3532.00   0.79994196   0.06962908
3534.00   0.84315777   0.07102124
3536.00   0.82893020   0.07083461
3538.00   0.82706159   0.07050862
3540.00   0.82198668   0.07201301
3542.00   0.76661199   0.07290923
3544.00   0.70768780   0.07004990
3546.00   0.70553648   0.06961001
3548.00   0.71471351   0.06902249
3550.00   0.76909268   0.06915125
3552.00   0.90988213   0.07133646
3554.00   0.88841712   0.07020257
3556.00   0.80916464   0.06894524
3558.00   0.94343829   0.07138467
3560.00   0.81489807   0.06749578
3562.00   0.85107619   0.06674933
3564.00   0.72195739   0.06381538
3566.00   0.80159277   0.06677882
3568.00   0.83799851   0.06435207
3570.00   0.82544088   0.06526330
3572.00   0.73267722   0.06372555
3574.00   0.82200384   0.06432936
3576.00   0.89323127   0.06445765
3578.00   0.77406377   0.06112963
3580.00   0.90749168   0.06435075
3582.00   0.81994140   0.06043294
3584.00   0.84863901   0.06001744
3586.00   0.95782089   0.06216095
3588.00   0.82876521   0.06099891
3590.00   0.85910141   0.06159515
3592.00   0.89046049   0.06002119
3594.00   0.93889701   0.06033675
3596.00   0.85636610   0.05835702
3598.00   0.86433041   0.05968389
3600.00   0.92980182   0.05945494
3602.00   0.82250243   0.05649540
3604.00   0.86623591   0.05757186
3606.00   0.97340238   0.05880163
3608.00   0.90597433   0.05721032
3610.00   0.92293066   0.05794951
3612.00   0.98997176   0.06093253
3614.00   0.96989483   0.06048768
3616.00   1.10114467   0.06121967
3618.00   0.97444797   0.05803813
3620.00   0.97357714   0.05760284
3622.00   1.02750981   0.05768510
3624.00   1.02159894   0.05747934
3626.00   0.99687153   0.05643785
3628.00   1.07621384   0.05907239
3630.00   1.11008835   0.06031971
3632.00   1.10367417   0.05859392
3634.00   0.99840319   0.05703223
3636.00   1.04032791   0.05709497
3638.00   1.14832270   0.05807769
3640.00   1.08413899   0.05803663
3642.00   1.11653340   0.05990099
3644.00   1.09806728   0.05931788
3646.00   1.19721472   0.06323454
3648.00   1.05871546   0.07646624
3650.00   1.22555614   0.07897519
3652.00   1.21843696   0.07082681
3654.00   1.24899173   0.07087263
3656.00   1.10127032   0.06088842
3658.00   1.31453764   0.06002862
3660.00   1.27527511   0.06233528
3662.00   1.20429540   0.06726339
3664.00   1.28243613   0.06149120
3666.00   1.35320544   0.05802608
3668.00   1.19762576   0.05625568
3670.00   1.26390743   0.05502002
3672.00   1.29955339   0.05598539
3674.00   1.23269141   0.05380679
3676.00   1.30521941   0.05447945
3678.00   1.22541535   0.05335280
3680.00   1.21016896   0.05286192
3682.00   1.26950169   0.05311207
3684.00   1.38727582   0.05446114
3686.00   1.36388457   0.05351771
3688.00   1.26473653   0.05216273
3690.00   1.30543947   0.05321379
3692.00   1.27922463   0.05282147
3694.00   1.34266114   0.05298980
3696.00   1.31434691   0.05291360
3698.00   1.41374087   0.05441108
3700.00   1.41372979   0.05405983
3702.00   1.35524154   0.05315386
3704.00   1.38713360   0.05319250
3706.00   1.34688306   0.05242099
3708.00   1.43301845   0.05320681
3710.00   1.37129462   0.05223748
3712.00   1.39448702   0.05209108
3714.00   1.38976765   0.05174573
3716.00   1.35378051   0.05097541
3718.00   1.38130641   0.05155014
3720.00   1.31702137   0.05049041
3722.00   1.39741027   0.05107249
3724.00   1.42956102   0.05127127
3726.00   1.35890448   0.05041158
3728.00   1.45389116   0.05180059
3730.00   1.36709261   0.05035560
3732.00   1.32663512   0.05000234
3734.00   1.37619543   0.05041600
3736.00   1.36174691   0.05020293
3738.00   1.24702227   0.04880718
3740.00   1.29910815   0.04930421
3742.00   1.32348371   0.04924338
3744.00   1.37711620   0.04917144
3746.00   1.31874812   0.04773470
3748.00   1.35096216   0.04822998
3750.00   1.34923768   0.04867921
3752.00   1.36151099   0.04837368
3754.00   1.39878380   0.04862877
3756.00   1.34053802   0.04769273
3758.00   1.37490070   0.04816969
3760.00   1.34125483   0.04841584
3762.00   1.28667569   0.04647877
3764.00   1.45011044   0.04836668
3766.00   1.30679047   0.04642583
3768.00   1.43535542   0.04783249
3770.00   1.29053509   0.04628751
3772.00   1.31700039   0.04624673
3774.00   1.33782184   0.04640778
3776.00   1.34284472   0.04649518
3778.00   1.28101969   0.04522112
3780.00   1.34800589   0.04581970
3782.00   1.34517872   0.04577954
3784.00   1.23298192   0.04465886
3786.00   1.22758591   0.04406403
3788.00   1.28830671   0.04535161
3790.00   1.28630388   0.04547596
3792.00   1.31870914   0.04527467
3794.00   1.30384815   0.04494151
3796.00   1.28268123   0.04456220
3798.00   1.27352285   0.04397595
3800.00   1.29448283   0.04465073
3802.00   1.37587166   0.04594440
3804.00   1.30255544   0.04404502
3806.00   1.32234383   0.04421527
3808.00   1.35671842   0.04446317
3810.00   1.41235244   0.04495087
3812.00   1.36395466   0.04490027
3814.00   1.38838470   0.04495202
3816.00   1.32484293   0.04409875
3818.00   1.31114936   0.04397615
3820.00   1.18034625   0.04545688
3822.00   1.20793462   0.04268375
3824.00   1.26499808   0.04248644
3826.00   1.16940367   0.04189708
3828.00   1.25111842   0.04372723
3830.00   1.21114409   0.04268895
3832.00   1.14175105   0.04145561
3834.00   1.15891349   0.04141921
3836.00   1.14369881   0.04128883
3838.00   1.20055282   0.04177497
3840.00   1.21000838   0.04183032
3842.00   1.22621346   0.04170005
3844.00   1.18860877   0.04081938
3846.00   1.18704450   0.04130862
3848.00   1.12804687   0.03986666
3850.00   1.23886919   0.04103362
3852.00   1.34792686   0.04428884
3854.00   1.94326007   0.05211993
3856.00   2.20563221   0.05590582
3858.00   2.17067575   0.05170966
3860.00   1.30531132   0.04094530
3862.00   1.11843920   0.03877413
3864.00   1.19075441   0.03928937
3866.00   1.22776043   0.03954402
3868.00   1.23450518   0.03966022
3870.00   1.18646467   0.03896587
3872.00   1.16522086   0.03947344
3874.00   1.20066702   0.04059942
3876.00   1.18776155   0.03895858
3878.00   1.06465042   0.03733848
3880.00   1.11509728   0.03769596
3882.00   1.13791633   0.03747744
3884.00   1.13995981   0.03769140
3886.00   1.16388237   0.03808613
3888.00   1.16138339   0.03759249
3890.00   1.17745185   0.03786155
3892.00   1.12226045   0.03708565
3894.00   1.03617918   0.03629949
3896.00   0.98500049   0.03572719
3898.00   1.03791678   0.03630864
3900.00   0.98384982   0.03566536
3902.00   0.97626996   0.03575918
3904.00   0.95558298   0.03668530
3906.00   0.94786537   0.03970828
3908.00   1.03187442   0.04091654
3910.00   0.97585189   0.04036347
3912.00   0.98301774   0.04054151
3914.00   1.00968754   0.03828293
3916.00   1.02017474   0.03698376
3918.00   0.98356849   0.03644400
3920.00   0.97039908   0.03539303
3922.00   0.94021326   0.03478565
3924.00   0.89409930   0.03435166
3926.00   0.96965742   0.03487673
3928.00   0.85250473   0.03325922
3930.00   0.94796544   0.03460055
3932.00   0.80164808   0.03459595
3934.00   0.93902278   0.03504473
3936.00   0.96518552   0.03410843
3938.00   0.89560652   0.03347494
3940.00   0.94073623   0.03410570
3942.00   0.99720532   0.03596261
3944.00   0.97433084   0.03599107
3946.00   0.94216895   0.03456439
3948.00   0.93643188   0.03387961
3950.00   1.00059354   0.03458728
3952.00   0.97076964   0.03409655
3954.00   0.99958849   0.03394942
3956.00   0.89129615   0.03272481
3958.00   0.98862904   0.03417319
3960.00   1.05782390   0.03690183
3962.00   1.04438925   0.03590325
3964.00   1.02521801   0.03395673
3966.00   1.04601264   0.03421872
3968.00   1.09588599   0.03464152
3970.00   1.12340403   0.03452876
3972.00   1.10658491   0.03483459
3974.00   1.09135699   0.03462013
3976.00   1.20728838   0.03527492
3978.00   1.24363732   0.03584352
3980.00   1.26653576   0.03612321
3982.00   1.26489735   0.03589018
3984.00   1.28550124   0.03588514
3986.00   1.20059502   0.03496954
3988.00   1.26397181   0.03580054
3990.00   1.38694954   0.03714233
3992.00   1.29297543   0.03590252
3994.00   1.31477118   0.03695895
3996.00   1.29337132   0.03823975
3998.00   1.33919132   0.03703423
4000.00   1.39381838   0.03704648
4002.00   1.38049603   0.03659055
4004.00   1.30494511   0.03572328
4006.00   1.32850826   0.03604698
4008.00   1.34672630   0.03678866
4010.00   1.33572042   0.03639976
4012.00   1.37246585   0.03679923
4014.00   1.30926967   0.03561988
4016.00   1.23007596   0.03507636
4018.00   1.31866193   0.03848525
4020.00   1.31361699   0.04044482
4022.00   1.35085225   0.04099189
4024.00   1.36963177   0.04039272
4026.00   1.28747058   0.03718188
4028.00   1.29868293   0.03644095
4030.00   1.35316288   0.03747583
4032.00   1.32696044   0.03644758
4034.00   1.34353471   0.03623334
4036.00   1.33261991   0.03593563
4038.00   1.32976317   0.03536810
4040.00   1.38026321   0.03609075
4042.00   1.35197198   0.03659584
4044.00   1.41603386   0.04986211
4046.00   1.40963840   0.06617147
4048.00   1.42787731   0.04708527
4050.00   1.45868611   0.03846134
4052.00   1.50117826   0.03823763
4054.00   1.46260178   0.03885319
4056.00   1.43089890   0.03708366
4058.00   1.44748652   0.03619809
4060.00   1.45432389   0.03577591
4062.00   1.40490925   0.03523237
4064.00   1.44213295   0.03566052
4066.00   1.42948079   0.03556011
4068.00   1.36608791   0.03485642
4070.00   1.36265743   0.03450025
4072.00   1.42935252   0.03475802
4074.00   1.39543641   0.03497821
4076.00   1.48013699   0.03954519
4078.00   1.42325139   0.03927673
4080.00   1.45434725   0.03684027
4082.00   1.45035136   0.03743613
4084.00   1.46805060   0.03626178
4086.00   1.41307247   0.03610919
4088.00   1.45151854   0.03504274
4090.00   1.42909145   0.03373189
4092.00   1.38956928   0.03346630
4094.00   1.37138510   0.03338881
4096.00   1.32690895   0.03277094
4098.00   1.36427951   0.03318845
4100.00   1.30325305   0.03259782
4102.00   1.25605941   0.03160446
4104.00   1.30249536   0.03199326
4106.00   1.33254576   0.03242142
4108.00   1.40379369   0.03314094
4110.00   1.29676008   0.03176247
4112.00   1.34259522   0.03230228
4114.00   1.32351983   0.03220947
4116.00   1.37875378   0.03264156
4118.00   1.35496199   0.03191072
4120.00   1.34105253   0.03155899
4122.00   1.36272597   0.03188180
4124.00   1.37871873   0.03203966
4126.00   1.38600409   0.03216989
4128.00   1.40718472   0.03225705
4130.00   1.36901689   0.03238077
4132.00   1.39481091   0.03369180
4134.00   1.34283686   0.03245861
4136.00   1.38416564   0.03213757
4138.00   1.40411830   0.03277145
4140.00   1.37140357   0.03334475
4142.00   1.38989067   0.03219267
4144.00   1.38923275   0.03153982
4146.00   1.35755706   0.03137234
4148.00   1.42737556   0.03200416
4150.00   1.44183791   0.03289639
4152.00   1.47184944   0.03420675
4154.00   1.47574413   0.03286595
4156.00   1.47685540   0.03241032
4158.00   1.48293781   0.03237315
4160.00   1.48940706   0.03268501
4162.00   1.50118256   0.03306072
4164.00   1.50742745   0.03505453
4166.00   1.55614138   0.03444488
4168.00   1.49754739   0.03256258
4170.00   1.52093279   0.03260717
4172.00   1.48374081   0.03200092
4174.00   1.51362932   0.03199503
4176.00   1.48710239   0.03201092
4178.00   1.51670718   0.03255722
4180.00   1.47072637   0.03166156
4182.00   1.54926801   0.03202836
4184.00   1.50968874   0.03172622
4186.00   1.54076087   0.03200873
4188.00   1.49375880   0.03156557
4190.00   1.50310528   0.03156416
4192.00   1.53832066   0.03202247
4194.00   1.51043975   0.03149244
4196.00   1.45804381   0.03077833
4198.00   1.45128787   0.03081201
4200.00   1.43920791   0.03071595
4202.00   1.42922759   0.03071710
4204.00   1.48157847   0.03107706
4206.00   1.48240829   0.03107172
4208.00   1.44876623   0.03102725
4210.00   1.47214270   0.03151267
4212.00   1.38711643   0.03077585
4214.00   1.41738176   0.03054119
4216.00   1.42853451   0.03076017
4218.00   1.45177269   0.03087541
4220.00   1.43131351   0.03061071
4222.00   1.37872827   0.02993704
4224.00   1.41570699   0.03037645
4226.00   1.37731290   0.03002588
4228.00   1.43948340   0.03044075
4230.00   1.37070692   0.02997023
4232.00   1.34585857   0.03019312
4234.00   1.37165082   0.03029096
4236.00   1.32415938   0.03010195
4238.00   1.26982200   0.03008322
4240.00   1.23441112   0.02877316
4242.00   1.41090655   0.02998264
4244.00   1.39019704   0.03084118
4246.00   1.25063038   0.03342808
4248.00   1.25490224   0.03064155
4250.00   1.23711598   0.02868133
4252.00   1.27577913   0.02878714
4254.00   1.30636895   0.02908268
4256.00   1.27934158   0.02901517
4258.00   1.22662449   0.02834416
4260.00   1.23292184   0.02829137
4262.00   1.26284707   0.02835481
4264.00   1.27596867   0.02831660
4266.00   1.27526259   0.02822475
4268.00   1.29851067   0.02845995
4270.00   1.32362115   0.02878125
4272.00   1.31477070   0.02882286
4274.00   1.33058643   0.02891156
4276.00   1.29291439   0.02869391
4278.00   1.32906651   0.02897003
4280.00   1.31275594   0.02891888
4282.00   1.32806110   0.02929747
4284.00   1.29392171   0.02861545
4286.00   1.34848571   0.02898320
4288.00   1.36507881   0.02895452
4290.00   1.34255993   0.02869964
4292.00   1.34151971   0.02873839
4294.00   1.33698976   0.02896186
4296.00   1.40556228   0.02934398
4298.00   1.35923362   0.02892813
4300.00   1.43397045   0.02939942
4302.00   1.32173896   0.02837908
4304.00   1.31595099   0.02865973
4306.00   1.37302065   0.02925955
4308.00   1.30878007   0.02865558
4310.00   1.35320365   0.02891986
4312.00   1.37809074   0.03087228
4314.00   1.34132004   0.03161201
4316.00   1.29580665   0.02904712
4318.00   1.32915664   0.02925093
4320.00   1.28196716   0.03059815
4322.00   1.24100375   0.02887949
4324.00   1.27209389   0.02987734
4326.00   1.24010623   0.02872021
4328.00   1.27553797   0.02816666
4330.00   1.24513113   0.02782399
4332.00   1.26476002   0.02801221
4334.00   1.23426867   0.02785690
4336.00   1.25404155   0.02832297
4338.00   1.23943782   0.02860887
4340.00   1.24369812   0.02876381
4342.00   1.23978353   0.02855473
4344.00   1.23147070   0.02871243
4346.00   1.18951499   0.02971426
4348.00   1.18134499   0.02966840
4350.00   1.13185036   0.02813727
4352.00   1.17685008   0.02847670
4354.00   1.22922266   0.02954706
4356.00   1.24178243   0.04814031
4358.00   1.14552784   0.06621953
4360.00   1.17119074   0.04412430
4362.00   1.17295098   0.03142757
4364.00   1.14767492   0.02944134
4366.00   1.14837348   0.02889342
4368.00   1.09235799   0.02807624
4370.00   1.14822459   0.02832398
4372.00   1.07795131   0.02819704
4374.00   1.10770559   0.02974200
4376.00   1.10318589   0.02816813
4378.00   1.08825862   0.02739451
4380.00   1.09297109   0.02725529
4382.00   1.09300280   0.02720283
4384.00   1.08047771   0.02695454
4386.00   1.06331229   0.02657852
4388.00   1.07963777   0.02666912
4390.00   0.99401385   0.02627822
4392.00   0.99021780   0.02614488
4394.00   0.99335235   0.02598315
4396.00   1.03247178   0.02613164
4398.00   1.02180648   0.02659436
4400.00   1.01808572   0.02775697
4402.00   0.96205783   0.02635890
4404.00   0.98799145   0.02594673
4406.00   0.99373776   0.02601362
4408.00   0.93870193   0.02560894
4410.00   0.94717520   0.02563036
4412.00   0.93769348   0.02566067
4414.00   1.00374675   0.02700392
4416.00   0.96866500   0.02677252
4418.00   0.90688097   0.02526038
4420.00   0.91338205   0.02531308
4422.00   0.90750808   0.02522956
4424.00   0.93547457   0.02530951
4426.00   0.97610390   0.02566622
4428.00   0.98353046   0.02563633
4430.00   0.88208306   0.02491998
4432.00   1.00247121   0.02595001
4434.00   0.97742015   0.02555207
4436.00   0.97284603   0.02544920
4438.00   0.97295183   0.02555726
4440.00   0.92086720   0.02522471
4442.00   0.94185746   0.02507194
4444.00   0.94381434   0.02519137
4446.00   0.96345842   0.02531316
4448.00   0.95200795   0.02512756
4450.00   0.99413246   0.02541819
4452.00   1.00677288   0.02539307
4454.00   0.98416197   0.02530867
4456.00   0.95179892   0.02509845
4458.00   0.94515151   0.02516169
4460.00   0.97878957   0.02532962
4462.00   0.98773831   0.02530379
4464.00   0.98305428   0.02518992
4466.00   0.99094653   0.02518388
4468.00   1.02876580   0.02541066
4470.00   1.01958013   0.02524068
4472.00   1.00500917   0.02515366
4474.00   0.97949183   0.02502573
4476.00   0.93170893   0.02469336
4478.00   1.00461483   0.02513428
4480.00   1.00654173   0.02523674
4482.00   0.99840564   0.02517621
4484.00   1.01699007   0.02529908
4486.00   1.03729343   0.02548164
4488.00   1.12580144   0.02630734
4490.00   1.30111241   0.02797834
4492.00   1.18362975   0.02684004
4494.00   1.07762074   0.02604038
4496.00   1.05889773   0.02567920
4498.00   1.07529342   0.02600829
4500.00   1.06913650   0.02581410
4502.00   1.04424429   0.02534143
4504.00   1.09340596   0.02576550
4506.00   1.06203747   0.02558066
4508.00   1.12638307   0.02574121
4510.00   1.10379422   0.02555133
4512.00   1.13111162   0.02573301
4514.00   1.14468145   0.02597162
4516.00   1.12875664   0.02555230
4518.00   1.13216245   0.02555900
4520.00   1.10554469   0.02532807
4522.00   1.12068343   0.02547996
4524.00   1.12831140   0.02535935
4526.00   1.13333547   0.02528289
4528.00   1.09406137   0.02502430
4530.00   1.15311813   0.02554307
4532.00   1.12024200   0.02520365
4534.00   1.11980605   0.02521579
4536.00   1.16138482   0.02533886
4538.00   1.15430295   0.02521112
4540.00   1.17658830   0.02545022
4542.00   1.12480283   0.02540136
4544.00   1.16792786   0.02581164
4546.00   1.13837218   0.02536084
4548.00   1.20667648   0.02549729
4550.00   1.19423008   0.02529952
4552.00   1.19707096   0.02527635
4554.00   1.18834996   0.02523043
4556.00   1.17151392   0.02532513
4558.00   1.15492618   0.02511615
4560.00   1.15952766   0.02493409
4562.00   1.18227720   0.02507632
4564.00   1.19222414   0.02505736
4566.00   1.20968306   0.02509085
4568.00   1.20451641   0.02504008
4570.00   1.19105601   0.02492523
4572.00   1.19958818   0.02501336
4574.00   1.20793200   0.02522051
4576.00   1.18438947   0.02478147
4578.00   1.17961955   0.02468558
4580.00   1.21477342   0.02482714
4582.00   1.17553759   0.02433849
4584.00   1.21230125   0.02445908
4586.00   1.18012488   0.02430707
4588.00   1.20522952   0.02460035
4590.00   1.17411530   0.02436859
4592.00   1.23642373   0.02485224
4594.00   1.19282079   0.02465069
4596.00   1.24545133   0.02489038
4598.00   1.24819851   0.02484595
4600.00   1.24158955   0.02455331
