# File created by shivutils (I.Shivvers)
# 
# wl(A)   flm    er(optional)
3440.00   7.89280987   0.15718704
3442.00   7.87332678   0.15712613
3444.00   8.12166882   0.15923859
3446.00   7.77665854   0.15715478
3448.00   8.34914684   0.16235152
3450.00   8.61189079   0.16543056
3452.00   8.66421223   0.16647999
3454.00   8.41927433   0.16494928
3456.00   8.58975410   0.16618049
3458.00   8.52535439   0.16539195
3460.00   8.52762127   0.16512410
3462.00   8.52990150   0.16557792
3464.00   8.71608353   0.16727962
3466.00   8.26146126   0.16344924
3468.00   8.65071964   0.16680384
3470.00   8.61126041   0.16647500
3472.00   8.32999802   0.16405702
3474.00   8.71959877   0.16692613
3476.00   8.85299492   0.16748287
3478.00   9.28515911   0.17191902
3480.00   8.89549255   0.17016338
3482.00   9.04879093   0.17207059
3484.00   8.98903370   0.17080976
3486.00   9.07647228   0.17092110
3488.00   9.20853806   0.17145576
3490.00   8.98643780   0.16935678
3492.00   8.88132095   0.16786093
3494.00   8.81065369   0.16698055
3496.00   9.01981449   0.16790633
3498.00   8.97975540   0.16700040
3500.00   8.66570091   0.16396272
3502.00   8.87765980   0.16477813
3504.00   8.80978584   0.16477424
3506.00   8.64058399   0.16300817
3508.00   8.42930889   0.16027039
3510.00   8.56523132   0.16153975
3512.00   8.38895035   0.15991813
3514.00   8.29775715   0.15876560
3516.00   8.44194126   0.15921865
3518.00   8.29590034   0.15761739
3520.00   8.21687984   0.15681982
3522.00   8.61386681   0.15944429
3524.00   8.57130146   0.15868780
3526.00   8.59031582   0.15821053
3528.00   8.62408543   0.15807490
3530.00   8.77559185   0.15826705
3532.00   8.90069485   0.15898961
3534.00   8.83888149   0.15789060
3536.00   8.83135605   0.15763503
3538.00   9.02890682   0.15843628
3540.00   8.92737484   0.15802236
3542.00   8.63771725   0.15693496
3544.00   8.75252914   0.15754783
3546.00   8.80007458   0.15675329
3548.00   8.63516045   0.15446541
3550.00   8.80584526   0.15471625
3552.00   8.46687317   0.15166715
3554.00   8.82297611   0.15402468
3556.00   8.89761353   0.15360323
3558.00   8.68980885   0.15159726
3560.00   8.89607811   0.15234086
3562.00   8.66306686   0.14927849
3564.00   8.59032249   0.14815533
3566.00   8.72369576   0.14774401
3568.00   8.64531040   0.14721677
3570.00   8.57559681   0.14619328
3572.00   8.64469624   0.14551646
3574.00   8.52866459   0.14466546
3576.00   8.56277847   0.14412178
3578.00   8.50303459   0.14311971
3580.00   8.63104916   0.14313030
3582.00   8.92244244   0.14431199
3584.00   8.81445980   0.14283188
3586.00   8.79868126   0.14188962
3588.00   9.13135242   0.14391571
3590.00   8.94161320   0.14218663
3592.00   9.00117779   0.14211172
3594.00   9.05575085   0.14145747
3596.00   9.05431652   0.14044611
3598.00   8.77445030   0.13816707
3600.00   9.24468899   0.14047612
3602.00   9.28174305   0.14023373
3604.00   8.88322926   0.13707410
3606.00   9.11468792   0.13764741
3608.00   9.07658100   0.13654694
3610.00   9.07081032   0.13610594
3612.00   9.38199520   0.13787802
3614.00   9.19386101   0.13702583
3616.00   8.95627117   0.13512634
3618.00   9.03384686   0.13481803
3620.00   9.01442242   0.13360022
3622.00   8.65109539   0.13033080
3624.00   9.03580284   0.13231915
3626.00   8.80573940   0.13031411
3628.00   8.74861336   0.12933126
3630.00   8.77798843   0.12988339
3632.00   8.54885483   0.12805168
3634.00   8.69448471   0.12812376
3636.00   8.45489979   0.12578797
3638.00   8.56725597   0.12629955
3640.00   8.44339275   0.12496645
3642.00   8.55669785   0.12583907
3644.00   8.48717308   0.12488542
3646.00   8.55886745   0.12536007
3648.00   8.55064201   0.12801968
3650.00   8.33081055   0.13167469
3652.00   8.34213161   0.13089506
3654.00   8.46549892   0.12804058
3656.00   8.16846466   0.12424827
3658.00   8.01539326   0.12005990
3660.00   7.84262085   0.11756760
3662.00   7.87123966   0.11943210
3664.00   7.76023245   0.11888468
3666.00   7.54347467   0.11469393
3668.00   7.56701183   0.11250196
3670.00   7.34098053   0.11068241
3672.00   7.26450491   0.10959007
3674.00   7.04243851   0.10746822
3676.00   7.08561754   0.10726164
3678.00   7.30506039   0.10796294
3680.00   6.84228468   0.10585906
3682.00   6.75262737   0.10386817
3684.00   6.46238375   0.10118401
3686.00   6.23274231   0.09918148
3688.00   6.08008814   0.09785201
3690.00   6.04135036   0.09762888
3692.00   6.02432966   0.09706257
3694.00   5.93757248   0.09641789
3696.00   5.73002243   0.09468023
3698.00   5.90733957   0.09585649
3700.00   5.60437298   0.09385099
3702.00   5.59287691   0.09311052
3704.00   5.56364202   0.09284266
3706.00   5.16320753   0.08981668
3708.00   5.32414532   0.09005149
3710.00   5.31427383   0.09001637
3712.00   5.36112547   0.08985546
3714.00   5.46216011   0.09023473
3716.00   5.32754230   0.08959987
3718.00   5.28046179   0.08847988
3720.00   5.16339493   0.08770420
3722.00   5.11116838   0.08659174
3724.00   4.99849463   0.08559020
3726.00   4.99769735   0.08544419
3728.00   4.88466835   0.08475793
3730.00   4.90296555   0.08450851
3732.00   4.80080652   0.08361382
3734.00   4.71113968   0.08332130
3736.00   4.68368006   0.08253554
3738.00   4.62106895   0.08226129
3740.00   4.59189892   0.08197631
3742.00   4.45724726   0.08098029
3744.00   4.34758329   0.07946912
3746.00   4.32739401   0.07885051
3748.00   4.17592478   0.07756396
3750.00   4.34964371   0.07841232
3752.00   4.31465673   0.07827499
3754.00   4.41199923   0.07856915
3756.00   4.51169538   0.07917853
3758.00   4.51651430   0.07913496
3760.00   4.74142361   0.08005086
3762.00   4.66671324   0.07928023
3764.00   5.03939772   0.08203201
3766.00   5.67668104   0.09257523
3768.00   5.96643925   0.09817168
3770.00   6.03711033   0.10140651
3772.00   5.84913397   0.09491461
3774.00   5.58076143   0.08484558
3776.00   5.44444990   0.08332742
3778.00   5.53072977   0.08358034
3780.00   5.68612528   0.08458127
3782.00   6.00291300   0.08660410
3784.00   5.99050903   0.08637572
3786.00   6.06506586   0.08645027
3788.00   6.06358433   0.08630496
3790.00   6.04045057   0.08597425
3792.00   6.11915159   0.08637716
3794.00   6.15677500   0.08644602
3796.00   6.32418728   0.08741791
3798.00   6.20403862   0.08642880
3800.00   6.13802719   0.08572694
3802.00   6.07835579   0.08532093
3804.00   6.01863289   0.08466467
3806.00   5.88085461   0.08604202
3808.00   5.77862167   0.08578462
3810.00   5.91075945   0.08313801
3812.00   5.82321358   0.08262823
3814.00   5.80763197   0.08259650
3816.00   5.87029123   0.08303804
3818.00   5.92564487   0.08315478
3820.00   5.91318607   0.08283632
3822.00   6.07557964   0.08371446
3824.00   6.04850197   0.08326450
3826.00   6.00407600   0.08305021
3828.00   5.90805340   0.08258092
3830.00   6.02175522   0.08309618
3832.00   5.91312742   0.08240077
3834.00   5.86651325   0.08161525
3836.00   5.74224329   0.08042829
3838.00   5.74596405   0.08015116
3840.00   5.72703171   0.07969287
3842.00   5.74406767   0.07960676
3844.00   5.82551384   0.08004894
3846.00   5.97642517   0.08077305
3848.00   6.05409002   0.08108655
3850.00   6.05271387   0.08075664
3852.00   6.29683352   0.08165842
3854.00   6.27765226   0.08149939
3856.00   6.21176720   0.08097113
3858.00   6.31472349   0.08117169
3860.00   6.33439684   0.08115855
3862.00   6.36677170   0.08132683
3864.00   6.60572577   0.08270495
3866.00   6.71144056   0.08289830
3868.00   6.56866646   0.08171505
3870.00   6.76908398   0.08254299
3872.00   6.82347298   0.08286414
3874.00   6.77886724   0.08272769
3876.00   7.01939440   0.08388747
3878.00   7.01778698   0.08316696
3880.00   7.15317965   0.08364041
3882.00   7.19428635   0.08364949
3884.00   7.41209507   0.08486263
3886.00   7.73207045   0.08641071
3888.00   7.67400932   0.08608571
3890.00   7.99642801   0.08758490
3892.00   7.90897465   0.08712734
3894.00   8.09828281   0.08797092
3896.00   8.32836437   0.08912063
3898.00   8.30665302   0.08893384
3900.00   8.55453587   0.08981398
3902.00   8.70282745   0.09049033
3904.00   8.66843796   0.09039204
3906.00   8.93410969   0.09262216
3908.00   9.09078598   0.09402343
3910.00   8.94178677   0.09348097
3912.00   9.04424095   0.09372397
3914.00   9.13774300   0.09354412
3916.00   9.18318748   0.09270484
3918.00   9.14288998   0.09204427
3920.00   9.31304169   0.09226365
3922.00   9.23494434   0.09149116
3924.00   9.20724964   0.09118658
3926.00   9.08113003   0.09026504
3928.00   9.16911983   0.09042981
3930.00   9.21250820   0.09051472
3932.00   9.24273205   0.09101719
3934.00   9.08995819   0.09030547
3936.00   9.35556698   0.09066883
3938.00   9.52459049   0.09125499
3940.00   9.71621418   0.09215168
3942.00   9.74680519   0.09238020
3944.00   9.78473473   0.09270887
3946.00   10.06917858   0.09383055
3948.00   9.91147423   0.09264572
3950.00   10.25429344   0.09383947
3952.00   10.41493320   0.09410307
3954.00   10.40349770   0.09404432
3956.00   10.67294312   0.09489573
3958.00   10.81613255   0.09522056
3960.00   10.67001343   0.09508161
3962.00   11.00806141   0.09642451
3964.00   10.96681786   0.09572140
3966.00   10.94883728   0.09511009
3968.00   10.67918205   0.09394193
3970.00   10.89668941   0.09429936
3972.00   10.99406147   0.09450517
3974.00   10.67830372   0.09483565
3976.00   10.50418663   0.09210652
3978.00   10.73367023   0.09300770
3980.00   11.27064514   0.09513788
3982.00   11.28905106   0.09494391
3984.00   11.25845337   0.09488445
3986.00   11.31453419   0.09488252
3988.00   11.10619068   0.09392141
3990.00   10.91201591   0.09321723
3992.00   11.01814461   0.09336340
3994.00   10.73062611   0.09220909
3996.00   10.49903870   0.09159306
3998.00   10.42255306   0.09122118
4000.00   10.24347973   0.08982845
4002.00   10.11180210   0.08902984
4004.00   9.99916553   0.08821984
4006.00   9.68520737   0.08693380
4008.00   9.56263447   0.08629034
4010.00   9.24494553   0.08488250
4012.00   9.23858452   0.08495783
4014.00   9.33547783   0.08501437
4016.00   9.29862785   0.08466564
4018.00   9.15803337   0.08460382
4020.00   9.24044704   0.08585527
4022.00   9.31524754   0.08671671
4024.00   9.14197826   0.08583552
4026.00   9.04449463   0.08452895
4028.00   9.07493114   0.08391707
4030.00   8.99628544   0.08340205
4032.00   9.21447086   0.08414691
4034.00   9.20740986   0.08382923
4036.00   9.13938522   0.08314674
4038.00   9.01990700   0.08260886
4040.00   9.05263424   0.08261123
4042.00   9.06598186   0.08276700
4044.00   9.07299042   0.08662950
4046.00   9.03396988   0.09331577
4048.00   9.11024570   0.09319401
4050.00   8.99776936   0.08542281
4052.00   9.30107403   0.08376955
4054.00   9.25144577   0.08351915
4056.00   9.38640022   0.08370876
4058.00   9.45064545   0.08330864
4060.00   9.71282578   0.08392914
4062.00   9.56780815   0.08319861
4064.00   9.69314384   0.08354834
4066.00   9.59739685   0.08307809
4068.00   9.56192398   0.08289033
4070.00   9.68068504   0.08296584
4072.00   9.70495987   0.08269979
4074.00   9.73798847   0.08293213
4076.00   9.74982357   0.08396260
4078.00   9.97748852   0.08545792
4080.00   9.92867279   0.08483007
4082.00   10.11736870   0.08464541
4084.00   10.28861809   0.08508462
4086.00   10.21043015   0.08461159
4088.00   10.28696156   0.08435209
4090.00   10.32751846   0.08392510
4092.00   10.33787060   0.08363837
4094.00   10.51762486   0.08414064
4096.00   10.46952343   0.08389413
4098.00   10.58219624   0.08409941
4100.00   10.64167595   0.08409765
4102.00   10.39938831   0.08301658
4104.00   10.75694942   0.08399223
4106.00   10.51732635   0.08313779
4108.00   10.57342434   0.08325961
4110.00   10.57304668   0.08316172
4112.00   10.71591759   0.08352611
4114.00   10.58361435   0.08339117
4116.00   10.51602077   0.08481745
4118.00   10.70185566   0.08276022
4120.00   10.53821564   0.08206886
4122.00   10.61821175   0.08224731
4124.00   10.66358185   0.08231468
4126.00   10.61749172   0.08216240
4128.00   10.84547710   0.08281636
4130.00   10.93451023   0.08308580
4132.00   10.70241833   0.08254598
4134.00   10.57631588   0.08196229
4136.00   10.53532982   0.08132025
4138.00   10.51599216   0.08118127
4140.00   10.38133812   0.08066069
4142.00   10.25524330   0.07998654
4144.00   10.22784424   0.07924092
4146.00   10.22123337   0.07921405
4148.00   10.50156975   0.08001778
4150.00   10.15250778   0.07876032
4152.00   9.86341572   0.07795440
4154.00   10.00579262   0.07836325
4156.00   9.75517082   0.07710308
4158.00   9.85952568   0.07726070
4160.00   9.91407204   0.07733113
4162.00   9.85421562   0.07722314
4164.00   9.78337097   0.07741536
4166.00   9.65173817   0.07701463
4168.00   9.73152065   0.07662500
4170.00   9.61648846   0.07585240
4172.00   9.58406258   0.07548890
4174.00   9.52875137   0.07503206
4176.00   9.48835850   0.07476792
4178.00   9.36959934   0.07425848
4180.00   9.50147724   0.07464807
4182.00   9.37605095   0.07389103
4184.00   9.33360291   0.07360866
4186.00   9.50560474   0.07409388
4188.00   9.24730778   0.07305844
4190.00   9.35590839   0.07324444
4192.00   9.20443058   0.07268756
4194.00   9.27029037   0.07288127
4196.00   9.24848747   0.07262222
4198.00   9.20432472   0.07225361
4200.00   9.30056477   0.07247420
4202.00   9.42545033   0.07286623
4204.00   9.48109722   0.07303449
4206.00   9.40554523   0.07271583
4208.00   9.21804523   0.07217135
4210.00   9.22461700   0.07216654
4212.00   9.22621536   0.07200767
4214.00   9.00233936   0.07102568
4216.00   9.08383942   0.07121363
4218.00   9.17771339   0.07144635
4220.00   8.89329433   0.07022742
4222.00   8.90215111   0.07018069
4224.00   8.89419651   0.07004239
4226.00   8.77663803   0.06939496
4228.00   8.73894691   0.06925330
4230.00   8.64134789   0.06892239
4232.00   8.67157555   0.06901580
4234.00   8.51289558   0.06842650
4236.00   8.48185921   0.06831466
4238.00   8.41091728   0.06809038
4240.00   8.35944271   0.06759328
4242.00   8.27610111   0.06694000
4244.00   8.15193844   0.06683125
4246.00   8.15265465   0.06776014
4248.00   7.84220219   0.06673466
4250.00   8.04584122   0.06612477
4252.00   7.87360811   0.06510869
4254.00   7.90394449   0.06506094
4256.00   7.89747143   0.06502292
4258.00   7.76178169   0.06449588
4260.00   7.81632805   0.06445571
4262.00   7.63439131   0.06360260
4264.00   7.76207209   0.06398541
4266.00   7.59285498   0.06335463
4268.00   7.61324739   0.06329615
4270.00   7.48670053   0.06264393
4272.00   7.55896521   0.06288464
4274.00   7.48414373   0.06250460
4276.00   7.54882002   0.06273910
4278.00   7.33778954   0.06192587
4280.00   7.32433367   0.06186038
4282.00   7.24930096   0.06148579
4284.00   7.28918791   0.06153200
4286.00   7.32856560   0.06159803
4288.00   7.19899130   0.06097449
4290.00   7.10020828   0.06052108
4292.00   7.17588425   0.06086119
4294.00   7.07228184   0.06045485
4296.00   7.07659101   0.06031926
4298.00   6.93840742   0.05973257
4300.00   6.97242451   0.05975337
4302.00   6.98589182   0.05962897
4304.00   6.89802980   0.05931953
4306.00   6.82886410   0.05914073
4308.00   6.78304958   0.05901524
4310.00   6.69442844   0.05861104
4312.00   6.79011774   0.05951513
4314.00   6.64176607   0.05940970
4316.00   6.62909460   0.05896305
4318.00   6.64674377   0.05850219
4320.00   6.67907763   0.05892948
4322.00   6.59127760   0.05868161
4324.00   6.65701103   0.05866562
4326.00   6.59354734   0.05825507
4328.00   6.53665543   0.05762274
4330.00   6.33868599   0.05655296
4332.00   6.34038734   0.05644392
4334.00   6.40943480   0.05678231
4336.00   6.23198748   0.05624033
4338.00   6.18133163   0.05614557
4340.00   6.08137751   0.05583674
4342.00   6.23940372   0.05630219
4344.00   6.12239885   0.05591866
4346.00   6.21660805   0.05661425
4348.00   6.19680786   0.05676009
4350.00   6.34510851   0.05695988
4352.00   6.32036018   0.05667418
4354.00   6.40019894   0.05748348
4356.00   6.65314531   0.06716997
4358.00   6.78132582   0.07557673
4360.00   6.56525517   0.07222695
4362.00   6.55708981   0.06198443
4364.00   6.79474115   0.05925278
4366.00   6.88689423   0.05893233
4368.00   6.92561483   0.05878961
4370.00   6.82060242   0.05819461
4372.00   6.78964329   0.05819109
4374.00   6.87905455   0.05871392
4376.00   6.79507208   0.05833863
4378.00   7.02728891   0.05857859
4380.00   7.04689455   0.05837511
4382.00   6.97817326   0.05799380
4384.00   6.96341658   0.05774888
4386.00   7.34698772   0.05908024
4388.00   7.67855024   0.06266546
4390.00   7.76969767   0.06294430
4392.00   7.28736448   0.05932817
4394.00   7.20078182   0.05835914
4396.00   7.30864239   0.05861245
4398.00   7.32278872   0.05890802
4400.00   7.27440786   0.05898567
4402.00   7.44103861   0.05958404
4404.00   7.67089272   0.05995890
4406.00   7.56775141   0.06028617
4408.00   7.64838600   0.06005358
4410.00   7.63033199   0.05980358
4412.00   7.70624733   0.06007896
4414.00   7.73692131   0.06030503
4416.00   7.52240944   0.05962449
4418.00   7.44606876   0.05911694
4420.00   7.54856777   0.05929298
4422.00   7.39528608   0.05862850
4424.00   7.45289469   0.05872612
4426.00   7.32551670   0.05828014
4428.00   7.35533333   0.05835386
4430.00   7.20244551   0.05781759
4432.00   7.15431309   0.05754676
4434.00   7.16192341   0.05742908
4436.00   7.12812805   0.05724853
4438.00   7.03549051   0.05697079
4440.00   7.01766682   0.05697396
4442.00   6.93944883   0.05655963
4444.00   6.89006996   0.05639501
4446.00   6.87879276   0.05624253
4448.00   6.88397884   0.05619799
4450.00   6.83130932   0.05604324
4452.00   6.75898314   0.05568145
4454.00   6.71483040   0.05551448
4456.00   6.69768667   0.05541583
4458.00   6.79983568   0.05570851
4460.00   6.74286509   0.05559194
4462.00   6.76597118   0.05558596
4464.00   6.67834234   0.05517787
4466.00   6.75289392   0.05547361
4468.00   6.94814777   0.05609248
4470.00   6.95192862   0.05603648
4472.00   7.02783680   0.05630862
4474.00   6.96094322   0.05604897
4476.00   6.96669865   0.05601340
4478.00   7.05986595   0.05633752
4480.00   7.01004601   0.05615730
4482.00   7.11740351   0.05648289
4484.00   7.24351025   0.05689006
4486.00   7.23856974   0.05685340
4488.00   7.44696522   0.05764126
4490.00   7.54770470   0.05879050
4492.00   7.56807089   0.06204769
4494.00   7.51564550   0.05778825
4496.00   7.64459467   0.05827492
4498.00   7.67723370   0.05843738
4500.00   7.85351610   0.05892062
4502.00   7.84629488   0.05876484
4504.00   7.71566963   0.05828263
4506.00   7.82980108   0.05860167
4508.00   7.90936947   0.05876637
4510.00   7.87915134   0.05855427
4512.00   7.96668053   0.05887424
4514.00   7.94979906   0.05872198
4516.00   7.91028118   0.05852185
4518.00   7.95734644   0.05868328
4520.00   8.08028316   0.05907502
4522.00   7.93821621   0.05862498
4524.00   8.06052780   0.05890267
4526.00   8.15566063   0.05911043
4528.00   8.10648346   0.05895241
4530.00   8.04393196   0.05865332
4532.00   8.04802036   0.05868059
4534.00   8.21150970   0.05919749
4536.00   8.16803074   0.05903295
4538.00   8.17343807   0.05905369
4540.00   8.23212051   0.05916969
4542.00   8.19135952   0.05902049
4544.00   8.21929073   0.05922684
4546.00   8.30253029   0.05941859
4548.00   8.27039909   0.05918327
4550.00   8.30848408   0.05918880
4552.00   8.39379025   0.05942693
4554.00   8.39235020   0.05938946
4556.00   8.22032642   0.05898154
4558.00   8.33759403   0.05924793
4560.00   8.46839809   0.05950400
4562.00   8.31171703   0.05893347
4564.00   8.26081944   0.05873823
4566.00   8.32977104   0.05886089
4568.00   8.20823860   0.05847935
4570.00   8.19329071   0.05841355
4572.00   8.16548061   0.05837981
4574.00   8.06345844   0.05803394
4576.00   7.95488596   0.05764131
4578.00   7.89245892   0.05733207
4580.00   7.98493385   0.05756613
4582.00   8.03894615   0.05762115
4584.00   7.96177292   0.05728383
4586.00   7.92751408   0.05722677
4588.00   7.95188618   0.05733716
4590.00   7.95087671   0.05735176
4592.00   7.99747849   0.05744765
4594.00   8.03712749   0.05752310
4596.00   7.99986362   0.05746133
4598.00   7.98822880   0.05730323
4600.00   7.87984180   0.05686544
4602.00   7.88141441   0.05684258
4604.00   7.90363073   0.05696266
4606.00   7.89211321   0.05684695
