# File created by shivutils (I.Shivvers)
# wl(A)   flm    er(optional)
3442.00   0.57089865   0.16466013
3444.00   0.20230122   0.15705332
3446.00   0.24897224   0.16197702
3448.00   0.64804626   0.16904077
3450.00   0.75875092   0.18087628
3452.00   0.32385647   0.18515818
3454.00   0.44341439   0.18192223
3456.00   0.60997909   0.18191291
3458.00   -0.28721696   0.18045822
3460.00   -0.25376511   0.17639980
3462.00   -0.18870640   0.17632148
3464.00   0.15759501   0.16947696
3466.00   0.31434545   0.16499263
3468.00   0.45545828   0.17057475
3470.00   0.46638098   0.17444716
3472.00   0.80655032   0.17220618
3474.00   0.80993271   0.17478968
3476.00   0.45366600   0.17857270
3478.00   0.42573509   0.18838686
3480.00   0.68881220   0.20512924
3482.00   0.40748969   0.20066255
3484.00   0.73824430   0.20148034
3486.00   0.39144570   0.19472910
3488.00   0.42891219   0.19367155
3490.00   0.12612981   0.18861768
3492.00   0.69369769   0.19397555
3494.00   0.77026135   0.18639670
3496.00   0.49082294   0.18255439
3498.00   0.14130980   0.18106423
3500.00   0.56678420   0.17975083
3502.00   -0.02198490   0.17962860
3504.00   0.53800118   0.17771134
3506.00   0.23137890   0.17633542
3508.00   0.50846046   0.17769992
3510.00   0.45182836   0.18077585
3512.00   0.24019676   0.17516290
3514.00   0.00276066   0.17433693
3516.00   0.68120259   0.17582285
3518.00   0.61114198   0.17483246
3520.00   0.31524256   0.17101149
3522.00   0.41881081   0.17223620
3524.00   0.25010514   0.16966335
3526.00   0.66523135   0.17309049
3528.00   0.42198411   0.16829309
3530.00   0.22339448   0.16767977
3532.00   0.45949921   0.16833459
3534.00   0.31249076   0.17132026
3536.00   0.25146312   0.17273435
3538.00   0.52205372   0.17554557
3540.00   0.22016235   0.18515123
3542.00   0.14806561   0.19498827
3544.00   0.54553568   0.19767976
3546.00   0.77010983   0.19388662
3548.00   0.75690496   0.18581054
3550.00   1.13843107   0.18679087
3552.00   0.52097309   0.18434423
3554.00   0.72927320   0.18744481
3556.00   0.36675090   0.18270388
3558.00   0.25346279   0.18188210
3560.00   0.54534590   0.17572080
3562.00   0.64595145   0.16732526
3564.00   0.71849632   0.16383648
3566.00   0.66590512   0.16457160
3568.00   0.51818258   0.16191734
3570.00   0.30797696   0.16049676
3572.00   0.16334318   0.16063316
3574.00   0.40023807   0.16476116
3576.00   0.03130866   0.15998025
3578.00   0.15866055   0.15447032
3580.00   0.34597024   0.15445898
3582.00   0.02461872   0.15014929
3584.00   0.44900852   0.14359455
3586.00   0.36948517   0.14132710
3588.00   0.54704744   0.14638723
3590.00   0.25650522   0.15309185
3592.00   0.51748651   0.14880733
3594.00   0.34065548   0.14104120
3596.00   0.29656607   0.14511557
3598.00   0.06020767   0.13860117
3600.00   0.55579066   0.13953407
3602.00   0.04283733   0.13479833
3604.00   0.18857491   0.13581714
3606.00   0.22678177   0.13315366
3608.00   0.13944431   0.13074769
3610.00   0.46110210   0.13436942
3612.00   0.41994736   0.14409986
3614.00   -0.04501349   0.14864938
3616.00   0.60584784   0.14936346
3618.00   0.67564571   0.14563465
3620.00   0.64532989   0.13976079
3622.00   0.51263726   0.13952640
3624.00   0.59367746   0.13835731
3626.00   0.74207407   0.13612024
3628.00   0.24161759   0.13966689
3630.00   0.38076818   0.14955185
3632.00   0.27597123   0.14749965
3634.00   0.28790757   0.14471538
3636.00   0.68142128   0.14537650
3638.00   0.24450864   0.14011316
3640.00   0.51414949   0.14532483
3642.00   0.42066956   0.15534118
3644.00   0.37858456   0.15721555
3646.00   0.00230290   0.16909695
3648.00   1.00363004   0.23854125
3650.00   0.89569849   0.27469650
3652.00   0.81504411   0.24599941
3654.00   0.57949442   0.21397951
3656.00   0.23141845   0.19207817
3658.00   0.11155531   0.14743581
3660.00   0.07017665   0.15623099
3662.00   0.84446800   0.18710819
3664.00   0.19274102   0.17415234
3666.00   0.56370199   0.13603105
3668.00   0.51287240   0.12089837
3670.00   0.07997067   0.11385106
3672.00   0.29515573   0.11147243
3674.00   0.36121336   0.11033060
3676.00   0.45953217   0.10828234
3678.00   0.36944234   0.10529363
3680.00   0.22791426   0.10254325
3682.00   0.29645431   0.10194884
3684.00   0.43780822   0.10296610
3686.00   0.22035716   0.09946655
3688.00   0.16855781   0.10076333
3690.00   0.23520769   0.10215150
3692.00   -0.02183075   0.10243568
3694.00   0.56060106   0.10375096
3696.00   0.33354264   0.10114866
3698.00   0.12803780   0.10569876
3700.00   0.54026574   0.10701188
3702.00   0.52273333   0.10820819
3704.00   0.44649491   0.10581895
3706.00   0.01202240   0.10150728
3708.00   0.16015421   0.09959208
3710.00   0.31569004   0.09915518
3712.00   0.39365944   0.10030019
3714.00   0.46191871   0.09932912
3716.00   0.39999416   0.09689117
3718.00   0.13728520   0.09779442
3720.00   0.45065963   0.09896174
3722.00   0.06565442   0.09543755
3724.00   0.33364940   0.09333329
3726.00   0.26782796   0.09426049
3728.00   0.39647380   0.09918799
3730.00   0.15330334   0.09783714
3732.00   0.13521490   0.09932169
3734.00   0.15891518   0.09834126
3736.00   0.48858911   0.10023036
3738.00   0.39596471   0.10159907
3740.00   0.13216050   0.10045534
3742.00   0.14537703   0.09738202
3744.00   0.29791075   0.09533124
3746.00   0.45777154   0.09322233
3748.00   0.18736440   0.09059256
3750.00   0.52765948   0.09184283
3752.00   0.37813985   0.09071347
3754.00   0.35794947   0.08932534
3756.00   0.35709316   0.08784977
3758.00   0.17481276   0.08507949
3760.00   0.44379196   0.08731238
3762.00   0.50751781   0.08446591
3764.00   0.30364624   0.08196574
3766.00   0.32260737   0.08164949
3768.00   0.21867329   0.07990190
3770.00   0.19180579   0.08345784
3772.00   0.32940558   0.08311678
3774.00   0.25750518   0.08241808
3776.00   0.47975537   0.08433042
3778.00   0.46625549   0.08081096
3780.00   0.43693155   0.08183192
3782.00   0.26706272   0.08051024
3784.00   0.34498945   0.08112635
3786.00   0.24940279   0.07782072
3788.00   0.37481683   0.08020721
3790.00   0.14729041   0.08170360
3792.00   0.40562266   0.08274294
3794.00   0.46748039   0.08078422
3796.00   0.43595102   0.07763463
3798.00   0.34340099   0.07649487
3800.00   0.21146624   0.07605053
3802.00   0.12190348   0.07758206
3804.00   0.41120872   0.07874038
3806.00   0.38007155   0.07422388
3808.00   0.28263479   0.07274683
3810.00   0.36073226   0.07540968
3812.00   0.33476040   0.07643566
3814.00   0.23829478   0.07599608
3816.00   0.26793116   0.07580203
3818.00   0.46235016   0.07663604
3820.00   0.29956961   0.07649206
3822.00   0.25496161   0.07522788
3824.00   0.27367380   0.07427645
3826.00   0.32232499   0.07871821
3828.00   0.28933424   0.08319016
3830.00   0.32726753   0.08493575
3832.00   0.25569344   0.08315227
3834.00   0.38916647   0.08014789
3836.00   0.34639460   0.08008675
3838.00   0.37156722   0.07997894
3840.00   0.41240519   0.08008982
3842.00   0.37047720   0.07861880
3844.00   0.45678455   0.07710111
3846.00   0.36638507   0.07469513
3848.00   0.47053918   0.07669637
3850.00   0.79676396   0.07948606
3852.00   1.04957259   0.08295874
3854.00   1.02632523   0.07945252
3856.00   0.60829824   0.07218936
3858.00   0.23060168   0.06719620
3860.00   0.22694579   0.06821132
3862.00   0.37552738   0.07178964
3864.00   0.35489246   0.07082121
3866.00   0.37443465   0.06790727
3868.00   0.20989968   0.06737821
3870.00   0.29073748   0.06680336
3872.00   0.31327027   0.07058423
3874.00   0.30666566   0.07388744
3876.00   0.45059904   0.07208087
3878.00   0.45806080   0.06798548
3880.00   0.30058530   0.06599405
3882.00   0.41473389   0.06488186
3884.00   0.35993510   0.06418815
3886.00   0.39486083   0.06445066
3888.00   0.30333766   0.06454010
3890.00   0.36541051   0.06355272
3892.00   0.39081573   0.06358343
3894.00   0.33302143   0.06711610
3896.00   0.27121669   0.06587850
3898.00   0.34508422   0.06557500
3900.00   0.11701804   0.06677884
3902.00   0.27789250   0.06937307
3904.00   0.31788936   0.07707789
3906.00   0.56379986   0.09171589
3908.00   0.42444536   0.09759089
3910.00   0.50247914   0.09877107
3912.00   0.45729646   0.09793484
3914.00   0.34219369   0.08795122
3916.00   0.30375874   0.07883036
3918.00   0.27663127   0.07311016
3920.00   0.52025509   0.07053925
3922.00   0.42022690   0.06756246
3924.00   0.20065749   0.06547818
3926.00   0.11758818   0.06396066
3928.00   0.26482454   0.06345926
3930.00   0.32121670   0.06693410
3932.00   0.43208534   0.07366110
3934.00   0.37194887   0.07306204
3936.00   0.40209445   0.06503459
3938.00   0.24459864   0.06378586
3940.00   0.45902866   0.06734692
3942.00   0.32234409   0.07286178
3944.00   0.30297878   0.07574555
3946.00   0.18544856   0.07029073
3948.00   0.32183316   0.06650612
3950.00   0.35032165   0.06521104
3952.00   0.39420348   0.06371102
3954.00   0.39363709   0.06283603
3956.00   0.39110774   0.06233589
3958.00   0.29812089   0.06442370
3960.00   0.43038681   0.07210761
3962.00   0.30600736   0.07089539
3964.00   0.21619418   0.06241330
3966.00   0.35017937   0.05916180
3968.00   0.38718855   0.05895493
3970.00   0.39641485   0.05964564
3972.00   0.43192959   0.06230786
3974.00   0.24348821   0.06116374
3976.00   0.41496658   0.06158591
3978.00   0.45859694   0.06057636
3980.00   0.44614950   0.06074529
3982.00   0.50782627   0.05999059
3984.00   0.32441139   0.05916063
3986.00   0.43725139   0.05938519
3988.00   0.56037694   0.06114072
3990.00   0.30278304   0.06059003
3992.00   0.38332966   0.05970676
3994.00   0.46708414   0.06572615
3996.00   0.42858484   0.06978829
3998.00   0.50609797   0.06887314
4000.00   0.49704152   0.06242683
4002.00   0.36150309   0.05981905
4004.00   0.39015707   0.05944134
4006.00   0.46158850   0.06140777
4008.00   0.34788269   0.06234587
4010.00   0.40338627   0.06418975
4012.00   0.27628478   0.06296796
4014.00   0.25975168   0.06103152
4016.00   0.38759500   0.06409089
4018.00   0.38597631   0.07599960
4020.00   0.47284582   0.08667706
4022.00   0.25563794   0.08947120
4024.00   0.31351870   0.08589245
4026.00   0.43594447   0.07699044
4028.00   0.35987711   0.07082598
4030.00   0.38521406   0.07077676
4032.00   0.43282905   0.06870999
4034.00   0.25380510   0.06540956
4036.00   0.39440268   0.06516921
4038.00   0.42723584   0.06483360
4040.00   0.36335656   0.06504693
4042.00   0.21872599   0.07697951
4044.00   0.24275444   0.14443830
4046.00   0.34543747   0.17925124
4048.00   0.81268716   0.15337615
4050.00   0.20481801   0.09392370
4052.00   0.46038333   0.07530059
4054.00   0.60391283   0.07614653
4056.00   0.29945663   0.07129968
4058.00   0.39353427   0.06532948
4060.00   0.34906965   0.06170627
4062.00   0.43069553   0.06152818
4064.00   0.36111793   0.06143451
4066.00   0.43040797   0.06152335
4068.00   0.27150828   0.05969577
4070.00   0.46268585   0.05934173
4072.00   0.45527366   0.05783276
4074.00   0.44478318   0.06441934
4076.00   0.43851018   0.07973474
4078.00   0.70959753   0.08483493
4080.00   0.33343336   0.07623350
4082.00   0.31392878   0.07093865
4084.00   0.54923898   0.07057211
4086.00   0.51744574   0.06782191
4088.00   0.44272584   0.06267481
4090.00   0.28661522   0.05579897
4092.00   0.45267686   0.05537859
4094.00   0.31212544   0.05476014
4096.00   0.18312515   0.05410827
4098.00   0.39139411   0.05494465
4100.00   0.43185616   0.05508682
4102.00   0.28032330   0.05223643
4104.00   0.42403907   0.05202511
4106.00   0.40393898   0.05237335
4108.00   0.43848839   0.05286457
4110.00   0.53333926   0.05387931
4112.00   0.42590460   0.05316649
4114.00   0.41903698   0.05407692
4116.00   0.53007090   0.05401405
4118.00   0.50385368   0.05312925
4120.00   0.38330543   0.05109100
4122.00   0.50246811   0.05200337
4124.00   0.45106238   0.05336732
4126.00   0.49459627   0.05379174
4128.00   0.41989896   0.05408785
4130.00   0.26014048   0.05659738
4132.00   0.59311861   0.06081049
4134.00   0.41307530   0.05936017
4136.00   0.50811815   0.05618370
4138.00   0.44169790   0.05823500
4140.00   0.45893088   0.06010562
4142.00   0.53774822   0.05719081
4144.00   0.52816558   0.05280475
4146.00   0.47944951   0.05278154
4148.00   0.50636905   0.05360662
4150.00   0.47857609   0.05836012
4152.00   0.53617990   0.06247822
4154.00   0.37368608   0.05902774
4156.00   0.53702199   0.05575507
4158.00   0.33205378   0.05396949
4160.00   0.32709181   0.05441804
4162.00   0.41606691   0.05981984
4164.00   0.55530089   0.06528614
4166.00   0.35027441   0.06411047
4168.00   0.46595755   0.05811210
4170.00   0.45119026   0.05468899
4172.00   0.53801543   0.05367279
4174.00   0.49714234   0.05231394
4176.00   0.54576272   0.05340839
4178.00   0.51765853   0.05380376
4180.00   0.39557347   0.05259025
4182.00   0.46162269   0.05126051
4184.00   0.45521855   0.05049631
4186.00   0.43328461   0.05073979
4188.00   0.50867021   0.05103259
4190.00   0.45522627   0.05043873
4192.00   0.50038874   0.05128749
4194.00   0.39984098   0.05084542
4196.00   0.50038797   0.04996674
4198.00   0.47479460   0.04855696
4200.00   0.50773573   0.04935709
4202.00   0.43150496   0.04887632
4204.00   0.44641027   0.04977527
4206.00   0.40393081   0.05084182
4208.00   0.39912835   0.05180560
4210.00   0.44037354   0.05305550
4212.00   0.40761316   0.05238314
4214.00   0.45173225   0.05133225
4216.00   0.34274900   0.05089602
4218.00   0.44095024   0.05104749
4220.00   0.48203731   0.05127676
4222.00   0.40705314   0.05038987
4224.00   0.36275721   0.05050047
4226.00   0.43006912   0.05046414
4228.00   0.47124705   0.05084722
4230.00   0.44636482   0.05204136
4232.00   0.40885785   0.05331765
4234.00   0.21903074   0.05258995
4236.00   0.41436231   0.05505981
4238.00   0.53072757   0.05575850
4240.00   0.36945683   0.05259173
4242.00   0.38183975   0.05132029
4244.00   0.37209448   0.06096265
4246.00   0.42376417   0.06840182
4248.00   0.28276595   0.06468420
4250.00   0.40872541   0.05606494
4252.00   0.57011819   0.05308117
4254.00   0.40100268   0.05246580
4256.00   0.56732506   0.05439747
4258.00   0.46851468   0.05437737
4260.00   0.38363141   0.05217176
4262.00   0.41410068   0.05193257
4264.00   0.47991481   0.05078834
4266.00   0.53314441   0.05085726
4268.00   0.42190239   0.05045481
4270.00   0.30708158   0.05055875
4272.00   0.41731834   0.05143102
4274.00   0.32474294   0.05138443
4276.00   0.36011007   0.05152290
4278.00   0.37939841   0.05215530
4280.00   0.54194254   0.05322511
4282.00   0.39192104   0.05295705
4284.00   0.36465693   0.05277348
4286.00   0.40320748   0.05205420
4288.00   0.40246242   0.05123346
4290.00   0.39560908   0.05163582
4292.00   0.39697614   0.05198495
4294.00   0.36503547   0.05166893
4296.00   0.41406250   0.05189350
4298.00   0.46235126   0.05158171
4300.00   0.37201867   0.05070978
4302.00   0.53214961   0.05117607
4304.00   0.47349295   0.05179641
4306.00   0.45555007   0.05264600
4308.00   0.42585459   0.05256028
4310.00   0.35186324   0.05433657
4312.00   0.43398511   0.06086114
4314.00   0.51543808   0.06318881
4316.00   0.44160315   0.05841662
4318.00   0.36077929   0.05882357
4320.00   0.54636174   0.06044989
4322.00   0.49315727   0.06000338
4324.00   0.57434887   0.05887107
4326.00   0.31811222   0.05952523
4328.00   0.26389712   0.05592245
4330.00   0.43672255   0.05251779
4332.00   0.46627694   0.05240799
4334.00   0.46875045   0.05288245
4336.00   0.34446502   0.05396117
4338.00   0.37829217   0.05562440
4340.00   0.45149612   0.05662293
4342.00   0.49192491   0.05629999
4344.00   0.44915381   0.05962997
4346.00   0.42319548   0.06298412
4348.00   0.45075211   0.06357556
4350.00   0.32051080   0.06020529
4352.00   0.42534983   0.06004626
4354.00   0.10146628   0.08812907
4356.00   0.47623584   0.15328480
4358.00   0.81196922   0.17736086
4360.00   0.58406311   0.14580938
4362.00   0.46352571   0.09925938
4364.00   0.57455713   0.07087971
4366.00   0.40997797   0.06355978
4368.00   0.44749874   0.06109792
4370.00   0.40598798   0.06077109
4372.00   0.55206007   0.06400724
4374.00   0.22030458   0.06460563
4376.00   0.37452668   0.06222568
4378.00   0.29509723   0.05858411
4380.00   0.45073488   0.05755980
4382.00   0.48669633   0.05701880
4384.00   0.60216373   0.05674410
4386.00   0.50931579   0.05592271
4388.00   0.54271203   0.05620167
4390.00   0.57752085   0.05711823
4392.00   0.57478350   0.05676503
4394.00   0.35578367   0.05569053
4396.00   0.37425652   0.05572424
4398.00   0.34107301   0.05806706
4400.00   0.37524936   0.06015424
4402.00   0.55063581   0.05969450
4404.00   0.43505961   0.05745410
4406.00   0.45435533   0.05707391
4408.00   0.48281285   0.05679216
4410.00   0.59518129   0.05760881
4412.00   0.54797125   0.05875930
4414.00   0.61034107   0.06038848
4416.00   0.54076928   0.05990913
4418.00   0.35210106   0.05812098
4420.00   0.42072073   0.05713836
4422.00   0.60925174   0.05709299
4424.00   0.57068312   0.05698385
4426.00   0.34010199   0.05611164
4428.00   0.50175655   0.05623910
4430.00   0.44982839   0.05597744
4432.00   0.37884882   0.05616793
4434.00   0.31750649   0.05526987
4436.00   0.39955500   0.05543714
4438.00   0.50277042   0.05580919
4440.00   0.41074738   0.05558840
4442.00   0.36888731   0.05465193
4444.00   0.27838352   0.05471188
4446.00   0.38666958   0.05504875
4448.00   0.41016498   0.05471989
4450.00   0.34800535   0.05420694
4452.00   0.27299443   0.05372229
4454.00   0.35592040   0.05385401
4456.00   0.48645326   0.05427825
4458.00   0.38830760   0.05419629
4460.00   0.47591287   0.05405928
4462.00   0.36729845   0.05383742
4464.00   0.41565624   0.05346335
4466.00   0.27901572   0.05286717
4468.00   0.40271974   0.05271775
4470.00   0.37561372   0.05214301
4472.00   0.31183636   0.05222783
4474.00   0.44631720   0.05266188
4476.00   0.41442618   0.05262856
4478.00   0.37848270   0.05193882
4480.00   0.47805756   0.05208854
4482.00   0.39697608   0.05223192
4484.00   0.54834914   0.05320649
4486.00   0.61206663   0.05331304
4488.00   0.50946325   0.05275621
4490.00   0.50279748   0.05283097
4492.00   0.32810265   0.05291861
4494.00   0.36187688   0.05292718
4496.00   0.34141257   0.05307261
4498.00   0.33924383   0.05263533
4500.00   0.39775923   0.05305843
4502.00   0.26303589   0.05186889
4504.00   0.37985721   0.05169726
4506.00   0.34382564   0.05118121
4508.00   0.39425370   0.05084465
4510.00   0.36726931   0.05057996
4512.00   0.32451779   0.04982918
4514.00   0.25685415   0.04998040
4516.00   0.51917094   0.05009871
4518.00   0.41522127   0.04938823
4520.00   0.50629395   0.04986529
4522.00   0.38294151   0.04925250
4524.00   0.37684190   0.04869679
4526.00   0.36454216   0.04881689
4528.00   0.54627562   0.04920638
4530.00   0.44249091   0.04913516
4532.00   0.42716384   0.04887404
4534.00   0.29474518   0.04854005
4536.00   0.30183595   0.04818511
4538.00   0.48527509   0.04834589
4540.00   0.38937631   0.04857262
4542.00   0.39048091   0.04930896
4544.00   0.32647064   0.04928828
4546.00   0.25266424   0.04865169
4548.00   0.35002041   0.04791127
4550.00   0.34909090   0.04691656
4552.00   0.42674112   0.04684826
4554.00   0.45738062   0.04741403
4556.00   0.33974600   0.04735714
4558.00   0.28655517   0.04673400
4560.00   0.39438397   0.04666846
4562.00   0.43547884   0.04596686
4564.00   0.41247621   0.04558524
4566.00   0.33319995   0.04529697
4568.00   0.48306730   0.04543828
4570.00   0.46583518   0.04540375
4572.00   0.35089529   0.04552206
4574.00   0.49023530   0.04613020
4576.00   0.53236693   0.04551516
4578.00   0.36668837   0.04449541
4580.00   0.38450661   0.04387254
4582.00   0.39105943   0.04315877
4584.00   0.34189802   0.04275508
4586.00   0.43493262   0.04297891
4588.00   0.56389534   0.04342762
4590.00   0.37609190   0.04282093
4592.00   0.43853492   0.04339903
4594.00   0.41338003   0.04313191
4596.00   0.40649256   0.04308915
4598.00   0.46342400   0.04276285
4600.00   0.42703065   0.04183492
4602.00   0.39154893   0.04158543
4604.00   0.45127392   0.04144264
4606.00   0.37375441   0.04172322
4608.00   0.42526668   0.04222091
4610.00   0.43145701   0.04188133
