# File created by shivutils (I.Shivvers)
# Blotched regions marked with a #.
# wl(A)   flm    er(optional)
3440.00   0.18082437
3442.00   0.26500008
3444.00   0.28468105
3446.00   0.20981967
3448.00   0.30120543
3450.00   0.22496845
3452.00   0.16571961
3454.00   0.34703356
3456.00   0.24902454
3458.00   0.15990762
3460.00   0.29007760
3462.00   0.12676084
3464.00   0.28938252
3466.00   0.27856672
3468.00   0.25701579
3470.00   0.17785670
3472.00   0.21106209
3474.00   0.27490637
3476.00   0.30405158
3478.00   0.20289010
3480.00   0.26841176
3482.00   0.26991329
3484.00   0.22835219
3486.00   0.15508023
3488.00   0.23246850
3490.00   0.27270958
3492.00   0.31665251
3494.00   0.18255249
3496.00   0.26350331
3498.00   0.29576701
3500.00   0.30838475
3502.00   0.25917739
3504.00   0.22407889
3506.00   0.23403427
3508.00   0.17738277
3510.00   0.30650759
3512.00   0.22550930
3514.00   0.16905805
3516.00   0.16917992
3518.00   0.23892416
3520.00   0.33819479
3522.00   0.26237139
3524.00   0.26244438
3526.00   0.34554166
3528.00   0.24226271
3530.00   0.22762102
3532.00   0.28359047
3534.00   0.32150704
3536.00   0.21290433
3538.00   0.27679297
3540.00   0.25690654
3542.00   0.26614764
3544.00   0.24451812
3546.00   0.22853401
3548.00   0.13020363
3550.00   0.30966881
3552.00   0.19541331
3554.00   0.27702898
3556.00   0.18093562
3558.00   0.24249105
3560.00   0.20010562
3562.00   0.26776749
3564.00   0.30311677
3566.00   0.29090235
3568.00   0.24205540
3570.00   0.17791307
3572.00   0.22632943
3574.00   0.22842263
3576.00   0.23977573
3578.00   0.35297194
3580.00   0.19081225
3582.00   0.30305418
3584.00   0.19798531
3586.00   0.17249015
3588.00   0.22038373
3590.00   0.19404177
3592.00   0.23497607
3594.00   0.24205476
3596.00   0.25826028
3598.00   0.26339051
3600.00   0.25443780
3602.00   0.24774142
3604.00   0.25477508
3606.00   0.22629285
3608.00   0.24110815
3610.00   0.33533338
3612.00   0.21649745
3614.00   0.29108092
3616.00   0.29051077
3618.00   0.31375933
3620.00   0.21120510
3622.00   0.25250852
3624.00   0.22602406
3626.00   0.22689231
3628.00   0.20748603
3630.00   0.24581082
3632.00   0.26103637
3634.00   0.22207220
3636.00   0.13970955
3638.00   0.26289320
3640.00   0.21030593
3642.00   0.24253036
3644.00   0.30556127
3646.00   0.24010989
3648.00   0.28933686
3650.00   0.21561456
3652.00   0.32460758
3654.00   0.24160382
3656.00   0.29370838
3658.00   0.21896130
3660.00   0.16020466
3662.00   0.24425752
3664.00   0.28510210
3666.00   0.22412463
3668.00   0.19016826
3670.00   0.22917996
3672.00   0.28683364
3674.00   0.20245202
3676.00   0.26994604
3678.00   0.28681567
3680.00   0.28975123
3682.00   0.22827615
3684.00   0.26427013
3686.00   0.23606955
3688.00   0.28717515
3690.00   0.27219900
3692.00   0.23388511
3694.00   0.23732539
3696.00   0.31989536
3698.00   0.29123852
3700.00   0.29464960
3702.00   0.27084473
3704.00   0.21838647
3706.00   0.22269782
3708.00   0.28251004
3710.00   0.25968805
3712.00   0.30165938
3714.00   0.24196863
3716.00   0.27258569
3718.00   0.25708061
3720.00   0.35432070
3722.00   0.28429273
3724.00   0.25390539
3726.00   0.21834539
3728.00   0.26485673
3730.00   0.22868247
3732.00   0.23794049
3734.00   0.22354768
3736.00   0.30232757
3738.00   0.26208124
3740.00   0.20125799
3742.00   0.29133499
3744.00   0.26896545
3746.00   0.25854325
3748.00   0.29348394
3750.00   0.31326333
3752.00   0.23876818
3754.00   0.18175279
3756.00   0.18744214
3758.00   0.23949912
3760.00   0.26972881
3762.00   0.25863272
3764.00   0.22063515
3766.00   0.26828641
3768.00   0.28510195
3770.00   0.29261428
3772.00   0.28166768
3774.00   0.28861329
3776.00   0.34627673
3778.00   0.25504559
3780.00   0.22066063
3782.00   0.30447686
3784.00   0.31370071
3786.00   0.23743160
3788.00   0.25943065
3790.00   0.26631284
3792.00   0.24753623
3794.00   0.24994716
3796.00   0.24650802
3798.00   0.27849242
3800.00   0.24985442
3802.00   0.28004384
3804.00   0.29742426
3806.00   0.30905321
3808.00   0.27106345
3810.00   0.21303748
3812.00   0.22228414
3814.00   0.27466640
3816.00   0.26798835
3818.00   0.30100471
3820.00   0.31356907
3822.00   0.27933598
3824.00   0.24130821
3826.00   0.22890951
3828.00   0.30257532
3830.00   0.24670789
3832.00   0.26776233
3834.00   0.23467466
3836.00   0.29960039
3838.00   0.31522733
3840.00   0.30133188
3842.00   0.28608951
3844.00   0.30252585
3846.00   0.28336057
3848.00   0.26000345
3850.00   0.24435525
3852.00   0.26039529
3854.00   0.32172111
3856.00   0.27403650
3858.00   0.25321254
3860.00   0.31404954
3862.00   0.28984609
3864.00   0.28004882
3866.00   0.28336692
3868.00   0.28735352
3870.00   0.29327059
3872.00   0.28871036
3874.00   0.28826892
3876.00   0.27980721
3878.00   0.33741653
3880.00   0.32750043
3882.00   0.33797172
3884.00   0.31628257
3886.00   0.26275280
3888.00   0.28163725
3890.00   0.26422879
3892.00   0.25731257
3894.00   0.29471076
3896.00   0.31530368
3898.00   0.31344071
3900.00   0.32009116
3902.00   0.24647792
#3904.00   0.26802313
#3906.00   0.46417248
#3908.00   0.60649675
#3910.00   0.71847254
#3912.00   0.58172160
#3914.00   0.34051594
#3916.00   0.26776847
3918.00   0.26759544
3920.00   0.30061567
3922.00   0.33022800
3924.00   0.32316762
3926.00   0.27969623
3928.00   0.31901625
3930.00   0.29730693
3932.00   0.22621959
3934.00   0.28392667
3936.00   0.30492941
3938.00   0.35392722
3940.00   0.35219651
3942.00   0.32905489
3944.00   0.35305220
3946.00   0.33283544
3948.00   0.28654331
3950.00   0.29330844
3952.00   0.31150991
3954.00   0.26346329
3956.00   0.30271092
3958.00   0.30621144
3960.00   0.30757514
3962.00   0.32589746
3964.00   0.36563739
3966.00   0.36047211
3968.00   0.34704444
3970.00   0.35223091
3972.00   0.36465305
3974.00   0.31441709
3976.00   0.33922899
3978.00   0.30810487
3980.00   0.28437614
3982.00   0.26587829
3984.00   0.23366596
3986.00   0.28433555
3988.00   0.29691738
3990.00   0.31139967
3992.00   0.32389385
3994.00   0.33655092
3996.00   0.34577641
3998.00   0.35218695
4000.00   0.35329711
4002.00   0.35632762
4004.00   0.33199081
4006.00   0.31967643
4008.00   0.32308105
4010.00   0.34590977
4012.00   0.31747559
4014.00   0.30086318
4016.00   0.28454757
4018.00   0.25163424
4020.00   0.26351312
4022.00   0.28295222
4024.00   0.26642933
4026.00   0.24098507
4028.00   0.29194990
4030.00   0.32410035
4032.00   0.31461146
4034.00   0.33914155
4036.00   0.33433408
4038.00   0.35646334
4040.00   0.41541427
4042.00   0.38882852
4044.00   0.41218606
4046.00   0.32245743
4048.00   0.32914764
4050.00   0.39536777
4052.00   0.41470590
4054.00   0.42009529
4056.00   0.37488687
4058.00   0.38934833
4060.00   0.35189787
4062.00   0.34137437
4064.00   0.38783583
4066.00   0.34436002
4068.00   0.33321029
4070.00   0.34175548
4072.00   0.35035491
4074.00   0.31600973
4076.00   0.28116289
4078.00   0.30719969
4080.00   0.33287078
4082.00   0.32597181
4084.00   0.33604920
4086.00   0.37082827
4088.00   0.37489936
4090.00   0.38168854
4092.00   0.34728315
4094.00   0.37473091
4096.00   0.36895776
4098.00   0.37061957
4100.00   0.43153197
4102.00   0.42572924
4104.00   0.40750915
4106.00   0.43133962
4108.00   0.41156954
4110.00   0.37408513
4112.00   0.38386193
4114.00   0.38785070
4116.00   0.38096806
4118.00   0.37154588
4120.00   0.33761296
4122.00   0.32308081
4124.00   0.31547529
4126.00   0.27768120
4128.00   0.28981271
4130.00   0.32901955
4132.00   0.38972831
4134.00   0.37875143
4136.00   0.37271976
4138.00   0.38483453
4140.00   0.38146460
4142.00   0.39653414
4144.00   0.42543799
4146.00   0.42348069
4148.00   0.43806598
4150.00   0.43738681
4152.00   0.41958043
4154.00   0.37929416
4156.00   0.34673163
4158.00   0.33772048
4160.00   0.29927862
4162.00   0.31296024
4164.00   0.34877747
4166.00   0.31035194
4168.00   0.31001860
4170.00   0.34711421
4172.00   0.36784232
4174.00   0.40453452
4176.00   0.43908238
4178.00   0.42225322
4180.00   0.41955990
4182.00   0.40159535
4184.00   0.46490136
4186.00   0.45104539
4188.00   0.44606745
4190.00   0.45921397
4192.00   0.44119313
4194.00   0.46554968
4196.00   0.46797672
4198.00   0.44722053
4200.00   0.43521026
4202.00   0.47347331
4204.00   0.44955710
4206.00   0.43104741
4208.00   0.43944603
4210.00   0.43624353
4212.00   0.45200118
4214.00   0.44949588
4216.00   0.42602620
4218.00   0.44702208
4220.00   0.43633607
4222.00   0.43034491
4224.00   0.43664360
4226.00   0.41015774
4228.00   0.40662116
4230.00   0.42047188
4232.00   0.43139723
4234.00   0.44417873
4236.00   0.43875259
4238.00   0.43151945
4240.00   0.42713845
4242.00   0.42437020
4244.00   0.43574476
4246.00   0.41923583
4248.00   0.44430906
4250.00   0.43209198
4252.00   0.42664012
4254.00   0.40432271
4256.00   0.39342722
4258.00   0.45402822
4260.00   0.39772674
4262.00   0.40099585
4264.00   0.41719815
4266.00   0.39956656
4268.00   0.40240023
4270.00   0.39169246
4272.00   0.41643813
4274.00   0.40841994
4276.00   0.42752340
4278.00   0.42550546
4280.00   0.41305301
4282.00   0.43678537
4284.00   0.40910709
4286.00   0.44345424
4288.00   0.41951284
4290.00   0.41084433
4292.00   0.41385433
4294.00   0.40586245
4296.00   0.37150156
4298.00   0.34311366
4300.00   0.40164170
4302.00   0.42445150
4304.00   0.35625064
4306.00   0.32232168
4308.00   0.35937595
4310.00   0.37690514
4312.00   0.36762947
4314.00   0.40750897
4316.00   0.42272091
4318.00   0.43742475
4320.00   0.41845429
4322.00   0.42617169
4324.00   0.44362670
4326.00   0.43124002
4328.00   0.42372814
4330.00   0.39901382
4332.00   0.40768531
4334.00   0.40770841
4336.00   0.44127372
4338.00   0.42487285
4340.00   0.42762548
4342.00   0.39841026
4344.00   0.40179047
4346.00   0.36444810
4348.00   0.42532670
4350.00   0.46740228
4352.00   0.45032921
4354.00   0.40459982
4356.00   0.51547933
4358.00   0.38439772
4360.00   0.34164631
4362.00   0.38116843
4364.00   0.44507548
4366.00   0.43009272
4368.00   0.45602107
4370.00   0.43093157
4372.00   0.42430353
4374.00   0.45424154
4376.00   0.42276385
4378.00   0.39872009
4380.00   0.38252243
4382.00   0.39658609
4384.00   0.41170257
4386.00   0.43512866
4388.00   0.42065576
4390.00   0.43816155
4392.00   0.39471361
4394.00   0.39678141
4396.00   0.42720300
4398.00   0.40502784
4400.00   0.43464816
4402.00   0.41565892
4404.00   0.42314059
4406.00   0.41765702
4408.00   0.41836458
4410.00   0.44289044
4412.00   0.41766417
4414.00   0.43060863
4416.00   0.42301181
4418.00   0.41753951
4420.00   0.40936843
4422.00   0.41067147
4424.00   0.42593458
4426.00   0.43835837
4428.00   0.42972866
4430.00   0.41097370
4432.00   0.38815558
4434.00   0.38162491
4436.00   0.42239913
4438.00   0.45257643
4440.00   0.45082292
4442.00   0.42142856
4444.00   0.44736266
4446.00   0.45727897
4448.00   0.43833303
4450.00   0.46588138
4452.00   0.41857934
4454.00   0.45371512
4456.00   0.41027901
4458.00   0.44162869
4460.00   0.42772475
4462.00   0.44788945
4464.00   0.43205738
4466.00   0.39493620
4468.00   0.42656034
4470.00   0.39430007
4472.00   0.41972119
4474.00   0.45138371
4476.00   0.45422444
4478.00   0.41992673
4480.00   0.40344062
4482.00   0.39574191
4484.00   0.38083005
4486.00   0.41945288
4488.00   0.44430941
4490.00   0.43283027
4492.00   0.38593465
4494.00   0.39632228
4496.00   0.40102407
4498.00   0.42880964
4500.00   0.40513361
4502.00   0.39921743
4504.00   0.39606243
4506.00   0.42299545
4508.00   0.40929961
4510.00   0.37006947
4512.00   0.38672739
4514.00   0.37585479
4516.00   0.38382679
4518.00   0.39512452
4520.00   0.38171759
4522.00   0.39437258
4524.00   0.41305780
4526.00   0.40893942
4528.00   0.44759783
4530.00   0.42619115
4532.00   0.44688904
4534.00   0.44600302
4536.00   0.39132157
4538.00   0.39310470
4540.00   0.42751455
4542.00   0.41535661
4544.00   0.38923281
4546.00   0.39824688
4548.00   0.33942720
4550.00   0.38239363
4552.00   0.48506388
4554.00   0.43989247
4556.00   0.38461843
4558.00   0.38460359
4560.00   0.39481643
4562.00   0.38230583
4564.00   0.38282812
4566.00   0.41699100
4568.00   0.43837413
4570.00   0.45273840
4572.00   0.41973910
4574.00   0.43743646
4576.00   0.44830298
4578.00   0.43643814
4580.00   0.43523794
4582.00   0.44490528
4584.00   0.41883659
4586.00   0.38920021
4588.00   0.40549073
4590.00   0.40613836
4592.00   0.40653917
4594.00   0.39819437
4596.00   0.41210213
4598.00   0.35661742
4600.00   0.37052509
4602.00   0.36981398
4604.00   0.39842829
4606.00   0.38723850
4608.00   0.38964888
4610.00   0.42239782
4612.00   0.39833808
4614.00   0.38062346
4616.00   0.41569099
4618.00   0.38824555
4620.00   0.38886243
4622.00   0.40769240
4624.00   0.40508926
4626.00   0.42192042
4628.00   0.42430526
4630.00   0.39979962
4632.00   0.38968286
4634.00   0.42480737
4636.00   0.39978233
4638.00   0.39624587
4640.00   0.41135806
4642.00   0.41132513
4644.00   0.38147026
4646.00   0.39211485
4648.00   0.41596109
4650.00   0.39445868
4652.00   0.38723761
4654.00   0.42847806
4656.00   0.42334080
4658.00   0.41415888
4660.00   0.39275751
4662.00   0.40900281
4664.00   0.42479390
4666.00   0.42761946
4668.00   0.40436324
4670.00   0.41820005
4672.00   0.38575813
4674.00   0.37757751
4676.00   0.36931780
4678.00   0.40000066
4680.00   0.39290640
4682.00   0.40488470
4684.00   0.39661908
4686.00   0.39669648
4688.00   0.39937603
4690.00   0.43695760
4692.00   0.42205459
4694.00   0.42600968
4696.00   0.44176340
4698.00   0.42676887
4700.00   0.39939082
4702.00   0.40699404
4704.00   0.43473500
4706.00   0.44914719
4708.00   0.41341582
4710.00   0.42491651
4712.00   0.44261897
4714.00   0.42233017
4716.00   0.43167114
4718.00   0.41883230
4720.00   0.41669798
4722.00   0.42065006
4724.00   0.44250312
4726.00   0.47417292
4728.00   0.45707551
4730.00   0.44739538
4732.00   0.45661682
4734.00   0.46434301
4736.00   0.45424423
4738.00   0.44403765
4740.00   0.48022708
4742.00   0.46500322
4744.00   0.47452325
4746.00   0.45190394
4748.00   0.44793826
4750.00   0.43241206
4752.00   0.44524598
4754.00   0.43021387
4756.00   0.42451826
4758.00   0.44194597
4760.00   0.47857711
4762.00   0.46095011
4764.00   0.46296817
4766.00   0.46682003
4768.00   0.44495147
4770.00   0.42939809
4772.00   0.42279750
4774.00   0.42895913
4776.00   0.46585503
4778.00   0.47116497
4780.00   0.47187662
4782.00   0.48586079
4784.00   0.49896437
4786.00   0.47711501
4788.00   0.50059098
4790.00   0.47845742
4792.00   0.48277125
4794.00   0.48975518
4796.00   0.49059558
4798.00   0.50439090
4800.00   0.51437289
4802.00   0.52512836
4804.00   0.50568497
4806.00   0.51306623
4808.00   0.52548867
4810.00   0.47211039
4812.00   0.49134895
4814.00   0.53513116
4816.00   0.53683913
4818.00   0.51514834
4820.00   0.52413970
4822.00   0.53573948
4824.00   0.52920562
4826.00   0.53755432
4828.00   0.54061764
4830.00   0.53827137
4832.00   0.52967089
4834.00   0.54534400
4836.00   0.56442630
4838.00   0.54848433
4840.00   0.54505640
4842.00   0.55952007
4844.00   0.56953484
4846.00   0.55046451
4848.00   0.57288742
4850.00   0.58046472
4852.00   0.56692475
4854.00   0.52821594
4856.00   0.54336548
4858.00   0.52942699
4860.00   0.55705488
4862.00   0.56545973
4864.00   0.52487713
4866.00   0.54090458
4868.00   0.53537834
4870.00   0.53241158
4872.00   0.53101671
4874.00   0.52510524
4876.00   0.50164253
4878.00   0.53941989
4880.00   0.54546392
4882.00   0.52972615
4884.00   0.52072352
4886.00   0.53101861
4888.00   0.55155021
4890.00   0.54230809
4892.00   0.52531499
4894.00   0.51070893
4896.00   0.46764773
4898.00   0.50943923
4900.00   0.55880690
4902.00   0.54521352
4904.00   0.52065670
4906.00   0.52394968
4908.00   0.52333152
4910.00   0.48796988
4912.00   0.48012087
4914.00   0.49767187
4916.00   0.52866977
4918.00   0.48788777
4920.00   0.51259077
4922.00   0.50378275
4924.00   0.49330723
4926.00   0.50454146
4928.00   0.48922196
4930.00   0.46710578
4932.00   0.46684650
4934.00   0.44823790
4936.00   0.45736820
4938.00   0.46519831
4940.00   0.44853958
4942.00   0.46517971
4944.00   0.50848556
4946.00   0.45987728
4948.00   0.44930723
4950.00   0.48111060
4952.00   0.45097879
4954.00   0.47547713
4956.00   0.48199448
4958.00   0.46149319
4960.00   0.41801450
4962.00   0.42985111
4964.00   0.48872694
4966.00   0.44093636
4968.00   0.41871095
4970.00   0.43534166
4972.00   0.47070038
4974.00   0.49603096
4976.00   0.45337304
4978.00   0.48255977
4980.00   0.47001031
4982.00   0.48036441
4984.00   0.46956325
4986.00   0.44787979
4988.00   0.43933812
4990.00   0.45490536
4992.00   0.45118591
4994.00   0.46067059
4996.00   0.42399952
4998.00   0.44670287
5000.00   0.41870639
5002.00   0.43869561
5004.00   0.46014839
5006.00   0.44672045
5008.00   0.44994193
5010.00   0.46565074
5012.00   0.43604687
5014.00   0.46300974
5016.00   0.45625529
5018.00   0.48352510
5020.00   0.44679195
5022.00   0.45556268
5024.00   0.45126003
5026.00   0.45415616
5028.00   0.46509698
5030.00   0.47519943
5032.00   0.47707018
5034.00   0.45760113
5036.00   0.44897482
5038.00   0.45855474
5040.00   0.45519361
5042.00   0.44629836
5044.00   0.44922197
5046.00   0.44156575
5048.00   0.44805673
5050.00   0.44233793
5052.00   0.45300701
5054.00   0.43515173
5056.00   0.43398532
5058.00   0.45665145
5060.00   0.44447809
5062.00   0.46117941
5064.00   0.45391873
5066.00   0.45439434
5068.00   0.45324191
5070.00   0.43427753
5072.00   0.44518495
5074.00   0.43411708
5076.00   0.44563532
5078.00   0.44565487
5080.00   0.44825485
5082.00   0.42390528
5084.00   0.43548489
5086.00   0.43532735
5088.00   0.45716408
#5090.00   0.42852604
#5092.00   0.42618060
#5094.00   0.37986833
#5096.00   0.47697079
#5098.00   0.65358555
#5100.00   0.67708808
#5102.00   0.47634071
#5104.00   0.45300436
#5106.00   0.42684245
5108.00   0.43558219
5110.00   0.41525859
5112.00   0.41145062
5114.00   0.41414580
5116.00   0.42339972
5118.00   0.43043467
5120.00   0.43979830
5122.00   0.43983278
5124.00   0.45838612
5126.00   0.43399090
5128.00   0.43707645
5130.00   0.44060388
5132.00   0.43800443
5134.00   0.44696739
5136.00   0.45637330
5138.00   0.43979093
5140.00   0.47620171
5142.00   0.43964511
5144.00   0.46698746
5146.00   0.45800710
5148.00   0.48484951
5150.00   0.44079751
5152.00   0.47387859
5154.00   0.47819939
5156.00   0.42573136
5158.00   0.44893593
5160.00   0.47186264
5162.00   0.47167671
5164.00   0.44844356
5166.00   0.46918815
5168.00   0.48122820
5170.00   0.51161110
5172.00   0.49790791
5174.00   0.46220282
5176.00   0.47018328
5178.00   0.47227085
5180.00   0.50431538
5182.00   0.46936411
5184.00   0.48793224
5186.00   0.48302829
5188.00   0.49437374
5190.00   0.48660457
5192.00   0.50047791
5194.00   0.50071889
5196.00   0.48863062
5198.00   0.45614982
5200.00   0.50330156
5202.00   0.50816858
5204.00   0.47827771
5206.00   0.47389612
5208.00   0.46459889
5210.00   0.48922926
5212.00   0.47746208
5214.00   0.47108537
5216.00   0.47440490
5218.00   0.48666564
5220.00   0.47111952
5222.00   0.45989162
5224.00   0.49482185
5226.00   0.42324379
5228.00   0.40211493
5230.00   0.41916549
5232.00   0.46223074
5234.00   0.44064042
5236.00   0.44145611
5238.00   0.47768894
5240.00   0.44604883
5242.00   0.43805057
5244.00   0.43074140
5246.00   0.42511114
5248.00   0.44433957
5250.00   0.50902480
5252.00   0.54256606
5254.00   0.49164549
5256.00   0.45550171
5258.00   0.42006436
5260.00   0.44544461
5262.00   0.41066489
5264.00   0.40402585
5266.00   0.42202926
5268.00   0.41665283
5270.00   0.41322753
5272.00   0.46464077
5274.00   0.42967948
5276.00   0.41431022
5278.00   0.43739754
5280.00   0.41690129
5282.00   0.39715305
5284.00   0.39932755
5286.00   0.41948643
5288.00   0.40735728
5290.00   0.41562942
5292.00   0.39575723
5294.00   0.41746524
5296.00   0.39351144
5298.00   0.42777681
5300.00   0.42076555
5302.00   0.40969923
5304.00   0.42767408
5306.00   0.42225897
5308.00   0.41193467
5310.00   0.42373857
5312.00   0.42321143
5314.00   0.44668841
5316.00   0.39203548
5318.00   0.41228601
5320.00   0.43180841
5322.00   0.42447823
5324.00   0.39013162
5326.00   0.43131015
5328.00   0.43130532
5330.00   0.40381727
