# File created by shivutils (I.Shivvers)
# 
# wl(A)   flm    er(optional)
3440.00   0.31948557   0.04780925
3442.00   0.28568667   0.04621564
3444.00   0.32346523   0.04648487
3446.00   0.30908155   0.04732939
3448.00   0.36854869   0.04736266
3450.00   0.31925106   0.04982717
3452.00   0.36457276   0.05118494
3454.00   0.32820284   0.05088786
3456.00   0.41839203   0.05211965
3458.00   0.23098303   0.04850805
3460.00   0.33135828   0.05000944
3462.00   0.41662961   0.05036533
3464.00   0.35732892   0.04921710
3466.00   0.35201490   0.04889766
3468.00   0.29078433   0.04746354
3470.00   0.26831612   0.04701775
3472.00   0.44655967   0.05025810
3474.00   0.42101300   0.04919767
3476.00   0.35373315   0.04835469
3478.00   0.40071204   0.05029534
3480.00   0.26750794   0.05214374
3482.00   0.28145888   0.05300906
3484.00   0.25735173   0.05194196
3486.00   0.39126772   0.05212163
3488.00   0.34955749   0.05135496
3490.00   0.27233905   0.05213606
3492.00   0.36944777   0.05075077
3494.00   0.33779705   0.04843371
3496.00   0.30913353   0.04748080
3498.00   0.36459830   0.04805305
3500.00   0.34235543   0.04778178
3502.00   0.39714572   0.04751199
3504.00   0.27511996   0.04557003
3506.00   0.37133437   0.04665989
3508.00   0.24222486   0.04485446
3510.00   0.30996245   0.04686677
3512.00   0.22427943   0.04519281
3514.00   0.33071244   0.04650797
3516.00   0.33064499   0.04675485
3518.00   0.41782156   0.04766269
3520.00   0.28435284   0.04434613
3522.00   0.33870947   0.04553317
3524.00   0.38712844   0.04634074
3526.00   0.31883323   0.04496161
3528.00   0.33874005   0.04499790
3530.00   0.38890231   0.04548357
3532.00   0.38938430   0.04502308
3534.00   0.30415034   0.04395502
3536.00   0.14488326   0.04174054
3538.00   0.38615724   0.04558530
3540.00   0.49471465   0.04763745
3542.00   0.34779608   0.04691186
3544.00   0.31802446   0.04935364
3546.00   0.36912090   0.04891204
3548.00   0.33808285   0.04773389
3550.00   0.36700657   0.04696189
3552.00   0.35340741   0.04675756
3554.00   0.40959203   0.04802625
3556.00   0.26432875   0.04599369
3558.00   0.24733691   0.04559208
3560.00   0.36874509   0.04598833
3562.00   0.32281590   0.04523176
3564.00   0.25325254   0.04204138
3566.00   0.40149581   0.04319219
3568.00   0.36219373   0.04278927
3570.00   0.37510076   0.04263883
3572.00   0.33326319   0.04217702
3574.00   0.33613393   0.04229177
3576.00   0.36697668   0.04236892
3578.00   0.38208467   0.04143757
3580.00   0.38410160   0.04075129
3582.00   0.33172077   0.03968984
3584.00   0.32577673   0.03882021
3586.00   0.39140156   0.03855215
3588.00   0.32109582   0.03761265
3590.00   0.34849486   0.03903708
3592.00   0.29017267   0.03953457
3594.00   0.43433666   0.03864647
3596.00   0.34739774   0.03712616
3598.00   0.28761765   0.03615257
3600.00   0.29679853   0.03629794
3602.00   0.38968343   0.03671874
3604.00   0.33489701   0.03623442
3606.00   0.35266653   0.03582581
3608.00   0.37388846   0.03536131
3610.00   0.40484130   0.03597309
3612.00   0.36659774   0.03654154
3614.00   0.38726559   0.03783398
3616.00   0.38682222   0.03760558
3618.00   0.37717766   0.03772185
3620.00   0.40556708   0.03709291
3622.00   0.35503250   0.03593208
3624.00   0.33901107   0.03536195
3626.00   0.34957942   0.03539737
3628.00   0.30305800   0.03506915
3630.00   0.35154474   0.03687204
3632.00   0.35350832   0.03763559
3634.00   0.39869416   0.03695755
3636.00   0.35683531   0.03642610
3638.00   0.34212402   0.03614099
3640.00   0.43710959   0.03710967
3642.00   0.36550575   0.03768196
3644.00   0.43026024   0.03899895
3646.00   0.38538796   0.03841870
3648.00   0.35979274   0.04591760
3650.00   0.42684004   0.05498426
3652.00   0.32098028   0.05259654
3654.00   0.39801288   0.04809493
3656.00   0.39447767   0.04442732
3658.00   0.42606887   0.03928211
3660.00   0.43031669   0.03762994
3662.00   0.44037443   0.04158108
3664.00   0.37285239   0.04132014
3666.00   0.38394684   0.03660415
3668.00   0.38220254   0.03287903
3670.00   0.40223500   0.03243571
3672.00   0.39007089   0.03186738
3674.00   0.42035070   0.03134828
3676.00   0.44220540   0.03129110
3678.00   0.39231220   0.03052623
3680.00   0.34261855   0.02934921
3682.00   0.36019960   0.02972475
3684.00   0.42877221   0.03021465
3686.00   0.33570525   0.02872868
3688.00   0.38202286   0.02907581
3690.00   0.39533684   0.03018693
3692.00   0.37653702   0.03025892
3694.00   0.39918262   0.03020303
3696.00   0.37599409   0.02922364
3698.00   0.37647331   0.02974446
3700.00   0.42282718   0.03070087
3702.00   0.37790430   0.02989971
3704.00   0.39504564   0.03030916
3706.00   0.37791359   0.02953453
3708.00   0.43201080   0.03008036
3710.00   0.43656695   0.02969278
3712.00   0.40113300   0.02940226
3714.00   0.40376067   0.02906748
3716.00   0.37279636   0.02825700
3718.00   0.38202816   0.02812476
3720.00   0.39673996   0.02807228
3722.00   0.47884586   0.02891309
3724.00   0.43308517   0.02835627
3726.00   0.39350814   0.02781124
3728.00   0.37550047   0.02818142
3730.00   0.46961930   0.02900587
3732.00   0.41313979   0.02869051
3734.00   0.40564784   0.02865285
3736.00   0.36837423   0.02844568
3738.00   0.38660079   0.02877314
3740.00   0.39574534   0.02932497
3742.00   0.38284776   0.02911540
3744.00   0.42619586   0.02893931
3746.00   0.41013402   0.02815721
3748.00   0.34673619   0.02693654
3750.00   0.41383758   0.02794750
3752.00   0.37970594   0.02710398
3754.00   0.43994534   0.02780448
3756.00   0.44123065   0.02785765
3758.00   0.42680302   0.02754108
3760.00   0.45142752   0.02762645
3762.00   0.42067921   0.02647541
3764.00   0.43854961   0.02665377
3766.00   0.46602401   0.02673302
3768.00   0.42231819   0.02610436
3770.00   0.43359858   0.02653974
3772.00   0.38076887   0.02584047
3774.00   0.38914692   0.02566892
3776.00   0.44628572   0.02623537
3778.00   0.38530639   0.02558018
3780.00   0.40368038   0.02547180
3782.00   0.38104033   0.02530280
3784.00   0.42752525   0.02566637
3786.00   0.41734299   0.02549143
3788.00   0.39275473   0.02481152
3790.00   0.44532907   0.02608189
3792.00   0.45520934   0.02611966
3794.00   0.41260758   0.02541719
3796.00   0.38650471   0.02472756
3798.00   0.41697186   0.02454000
3800.00   0.48175937   0.02551298
3802.00   0.43732876   0.02526186
3804.00   0.46701840   0.02568019
3806.00   0.47970688   0.02552488
3808.00   0.42138383   0.02451488
3810.00   0.47808072   0.02485222
3812.00   0.44621071   0.02496598
3814.00   0.45771688   0.02519835
3816.00   0.46370530   0.02510549
3818.00   0.52038801   0.02565650
3820.00   0.51207662   0.02583503
3822.00   0.46891594   0.02504683
3824.00   0.55279994   0.02589102
3826.00   0.47837043   0.02509986
3828.00   0.52073491   0.02645655
3830.00   0.47666284   0.02653452
3832.00   0.53808421   0.02723288
3834.00   0.54997957   0.02674363
3836.00   0.54117328   0.02624054
3838.00   0.58555830   0.02654627
3840.00   0.53961670   0.02594610
3842.00   0.57436103   0.02615254
3844.00   0.53433293   0.02570005
3846.00   0.59221035   0.02595092
3848.00   0.52637494   0.02507917
3850.00   0.53144509   0.02488022
3852.00   0.56023502   0.02519891
3854.00   0.54218394   0.02488616
3856.00   0.57361841   0.02483636
3858.00   0.54081756   0.02430040
3860.00   0.58127952   0.02486977
3862.00   0.57124752   0.02468737
3864.00   0.52880031   0.02452894
3866.00   0.55790395   0.02458978
3868.00   0.54494274   0.02432883
3870.00   0.55999368   0.02410137
3872.00   0.49463186   0.02367352
3874.00   0.53002787   0.02461579
3876.00   0.49862218   0.02421024
3878.00   0.51095420   0.02390176
3880.00   0.54465193   0.02366010
3882.00   0.55990976   0.02378536
3884.00   0.54521137   0.02366056
3886.00   0.51651800   0.02360728
3888.00   0.51169425   0.02346221
3890.00   0.51814950   0.02361319
3892.00   0.73881328   0.02619104
3894.00   1.40616035   0.03506673
3896.00   1.86487615   0.04198096
3898.00   1.36060333   0.03846955
3900.00   0.80821735   0.02949401
3902.00   0.55951709   0.02415935
3904.00   0.48542267   0.02422799
3906.00   0.53239703   0.02678356
3908.00   0.49208033   0.02786011
3910.00   0.52160722   0.02842092
3912.00   0.45369190   0.02774546
3914.00   0.52456510   0.02735609
3916.00   0.46798810   0.02511873
3918.00   0.45314714   0.02406240
3920.00   0.42788345   0.02321269
3922.00   0.42725357   0.02266084
3924.00   0.44606853   0.02294636
3926.00   0.44196939   0.02246379
3928.00   0.46124625   0.02259878
3930.00   0.47539771   0.02285337
3932.00   0.44414306   0.02337921
3934.00   0.42540383   0.02314274
3936.00   0.43948749   0.02238295
3938.00   0.41064522   0.02170947
3940.00   0.43058354   0.02214466
3942.00   0.41076201   0.02289406
3944.00   0.40929976   0.02343065
3946.00   0.44322672   0.02352921
3948.00   0.39349490   0.02214441
3950.00   0.47117269   0.02284689
3952.00   0.50118262   0.02296464
3954.00   0.51283127   0.02283360
3956.00   0.47772235   0.02213819
3958.00   0.42278627   0.02186514
3960.00   0.48390698   0.02341817
3962.00   0.46364892   0.02348810
3964.00   0.36511755   0.02122486
3966.00   0.37586462   0.02130240
3968.00   0.36841938   0.02123662
3970.00   0.38554579   0.02053105
3972.00   0.37901416   0.02081044
3974.00   0.41427821   0.02140340
3976.00   0.46013322   0.02171740
3978.00   0.47222450   0.02182203
3980.00   0.51614469   0.02245311
3982.00   0.52367145   0.02237891
3984.00   0.47881559   0.02174161
3986.00   0.44193634   0.02127267
3988.00   0.46133703   0.02160635
3990.00   0.53478938   0.02252167
3992.00   0.49250486   0.02177279
3994.00   0.46974978   0.02186451
3996.00   0.53893894   0.02352180
3998.00   0.45467737   0.02289808
4000.00   0.46423420   0.02191902
4002.00   0.45101938   0.02153037
4004.00   0.38136601   0.02034570
4006.00   0.45251790   0.02119867
4008.00   0.43444365   0.02190052
4010.00   0.48078400   0.02232855
4012.00   0.45999476   0.02210986
4014.00   0.49867359   0.02226675
4016.00   0.50045508   0.02207992
4018.00   0.59906030   0.02470964
4020.00   0.58232898   0.02640954
4022.00   0.61434811   0.02777978
4024.00   0.61228603   0.02703866
4026.00   0.59379303   0.02564898
4028.00   0.60440737   0.02447916
4030.00   0.60188133   0.02432155
4032.00   0.60977399   0.02396477
4034.00   0.64063364   0.02377708
4036.00   0.62540078   0.02364838
4038.00   0.60255581   0.02320702
4040.00   0.63460660   0.02345339
4042.00   0.66817945   0.02436002
4044.00   0.64644867   0.03277345
4046.00   0.63732570   0.04284229
4048.00   0.62829626   0.04071759
4050.00   0.69380510   0.02937520
4052.00   0.62817729   0.02474892
4054.00   0.62239099   0.02475249
4056.00   0.58395118   0.02404852
4058.00   0.61923367   0.02326304
4060.00   0.60437018   0.02262492
4062.00   0.61657423   0.02256428
4064.00   0.65090710   0.02300381
4066.00   0.62929147   0.02279084
4068.00   0.59765148   0.02220632
4070.00   0.61736369   0.02212938
4072.00   0.65561348   0.02230783
4074.00   0.67475474   0.02268299
4076.00   0.60306984   0.02450708
4078.00   0.70335543   0.02630965
4080.00   0.62405246   0.02473186
4082.00   0.66206187   0.02397374
4084.00   0.68200958   0.02407972
4086.00   0.68519068   0.02362206
4088.00   0.65682715   0.02289444
4090.00   0.66374999   0.02189145
4092.00   0.69997281   0.02189539
4094.00   0.70116335   0.02199090
4096.00   0.68884474   0.02183780
4098.00   0.73277605   0.02215138
4100.00   0.72070533   0.02192211
4102.00   0.74877620   0.02192128
4104.00   0.68427378   0.02095502
4106.00   0.66519731   0.02101394
4108.00   0.63919276   0.02076428
4110.00   0.58270365   0.02011647
4112.00   0.59204912   0.02001355
4114.00   0.62485361   0.02048781
4116.00   0.74493128   0.02149767
4118.00   0.74505919   0.02137971
4120.00   0.71750158   0.02146391
4122.00   0.74168408   0.02133447
4124.00   0.76113158   0.02151468
4126.00   0.73993474   0.02152404
4128.00   0.71091026   0.02137625
4130.00   0.74877965   0.02174823
4132.00   0.73476362   0.02231880
4134.00   0.72439086   0.02216056
4136.00   0.70199460   0.02154491
4138.00   0.65109688   0.02116940
4140.00   0.64859164   0.02143963
4142.00   0.64855450   0.02093394
4144.00   0.60540247   0.01985727
4146.00   0.59715158   0.01981058
4148.00   0.60666811   0.01967958
4150.00   0.65738952   0.02072982
4152.00   0.59071225   0.02099002
4154.00   0.61102408   0.02103980
4156.00   0.62856799   0.02033704
4158.00   0.65537995   0.02053696
4160.00   0.61547226   0.02032592
4162.00   0.60660625   0.02076825
4164.00   0.68673587   0.02245865
4166.00   0.64546126   0.02223945
4168.00   0.66543704   0.02123360
4170.00   0.64726925   0.02063817
4172.00   0.66342103   0.02053245
4174.00   0.69806504   0.02050072
4176.00   0.66953367   0.02044557
4178.00   0.65660876   0.02034652
4180.00   0.63566464   0.02007126
4182.00   0.68151969   0.02011632
4184.00   0.64572763   0.01968727
4186.00   0.63996738   0.01947954
4188.00   0.66747224   0.01996188
4190.00   0.64039361   0.01961026
4192.00   0.64596450   0.01980324
4194.00   0.67651200   0.01988968
4196.00   0.64397985   0.01943491
4198.00   0.66447443   0.01952437
4200.00   0.62575662   0.01920746
4202.00   0.65231931   0.01943268
4204.00   0.62399995   0.01915663
4206.00   0.61526322   0.01930279
4208.00   0.63889039   0.01968241
4210.00   0.64638788   0.01989658
4212.00   0.62941146   0.01971976
4214.00   0.63691550   0.01958067
4216.00   0.65980536   0.01971918
4218.00   0.64233232   0.01951166
4220.00   0.67898899   0.01971811
4222.00   0.66986662   0.01961555
4224.00   0.65643644   0.01938188
4226.00   0.65283626   0.01944738
4228.00   0.65030038   0.01914736
4230.00   0.65416539   0.01953530
4232.00   0.66167074   0.01981544
4234.00   0.66957331   0.01979931
4236.00   0.70106816   0.02028391
4238.00   0.65066302   0.02006797
4240.00   0.64544100   0.01967424
4242.00   0.65408820   0.01919117
4244.00   0.63470846   0.02009406
4246.00   0.63243461   0.02211246
4248.00   0.64803362   0.02207396
4250.00   0.65548581   0.02013354
4252.00   0.64886081   0.01929221
4254.00   0.61615103   0.01903289
4256.00   0.62863779   0.01934077
4258.00   0.60517102   0.01892038
4260.00   0.61044782   0.01873249
4262.00   0.60886657   0.01868173
4264.00   0.62164623   0.01868301
4266.00   0.59751129   0.01843535
4268.00   0.64417553   0.01892736
4270.00   0.57559282   0.01850504
4272.00   0.58914196   0.01855027
4274.00   0.59865117   0.01863153
4276.00   0.58739400   0.01862141
4278.00   0.57300305   0.01849797
4280.00   0.55708766   0.01820102
4282.00   0.52836829   0.01813737
4284.00   0.54606861   0.01814022
4286.00   0.62003505   0.01863955
4288.00   0.60471475   0.01829001
4290.00   0.54884410   0.01781157
4292.00   0.53914988   0.01784382
4294.00   0.52726167   0.01786593
4296.00   0.52355832   0.01783672
4298.00   0.57748210   0.01809848
4300.00   0.59573054   0.01814401
4302.00   0.59890258   0.01819311
4304.00   0.58355016   0.01815962
4306.00   0.60314226   0.01855443
4308.00   0.61779034   0.01857593
4310.00   0.60683012   0.01866341
4312.00   0.56170034   0.01946397
4314.00   0.58490682   0.02032119
4316.00   0.58126491   0.01955570
4318.00   0.63102943   0.01946373
4320.00   0.65305412   0.02026613
4322.00   0.68818116   0.02047139
4324.00   0.63912833   0.01975382
4326.00   0.61558938   0.01948478
4328.00   0.62203884   0.01867691
4330.00   0.60905862   0.01833745
4332.00   0.66560549   0.01865934
4334.00   0.66283190   0.01870137
4336.00   0.66921371   0.01901859
4338.00   0.66320699   0.01937483
4340.00   0.66025633   0.01941604
4342.00   0.64989978   0.01928825
4344.00   0.66364306   0.01968694
4346.00   0.67999983   0.02067213
4348.00   0.67323995   0.02095312
4350.00   0.66164124   0.02032835
4352.00   0.72313267   0.02019821
4354.00   0.71617246   0.02180231
4356.00   0.83405358   0.03646858
4358.00   0.68819571   0.04516189
4360.00   0.67757946   0.03989431
4362.00   0.58874506   0.02570910
4364.00   0.62958282   0.02104821
4366.00   0.65497589   0.02036332
4368.00   0.64373153   0.02001495
4370.00   0.65149176   0.01988522
4372.00   0.69039840   0.02045935
4374.00   0.70801669   0.02101936
4376.00   0.65874189   0.02025071
4378.00   0.65603483   0.01947323
4380.00   0.65141064   0.01920557
4382.00   0.65692478   0.01913179
4384.00   0.65320694   0.01888328
4386.00   0.65585220   0.01879698
4388.00   0.63922048   0.01866359
4390.00   0.62517661   0.01869805
4392.00   0.64990336   0.01886846
4394.00   0.61118674   0.01845900
4396.00   0.62633669   0.01837829
4398.00   0.62643075   0.01924450
4400.00   0.64527696   0.01973063
4402.00   0.60473675   0.01906916
4404.00   0.64272171   0.01877371
4406.00   0.60833514   0.01843163
4408.00   0.67411262   0.01897709
4410.00   0.69863153   0.01917982
4412.00   0.65898955   0.01894396
4414.00   0.65237558   0.01925401
4416.00   0.65178299   0.01936731
4418.00   0.62319064   0.01876494
4420.00   0.66589624   0.01890068
4422.00   0.67355794   0.01891873
4424.00   0.65383792   0.01864748
4426.00   0.63712502   0.01856220
4428.00   0.61229908   0.01828433
4430.00   0.64661181   0.01854161
4432.00   0.65801334   0.01852431
4434.00   0.64861715   0.01840085
4436.00   0.66460568   0.01841178
4438.00   0.61851913   0.01809384
4440.00   0.60717219   0.01807602
4442.00   0.62797475   0.01807667
4444.00   0.60624099   0.01800410
4446.00   0.62316233   0.01811874
4448.00   0.60471016   0.01787643
4450.00   0.61102557   0.01782984
4452.00   0.63212800   0.01793116
4454.00   0.65703768   0.01811720
4456.00   0.64422631   0.01799660
4458.00   0.64562821   0.01807862
4460.00   0.64608043   0.01802146
4462.00   0.66759568   0.01805924
4464.00   0.61784339   0.01763271
4466.00   0.62538940   0.01777039
4468.00   0.62782210   0.01784580
4470.00   0.68222952   0.01808424
4472.00   0.65680575   0.01788768
4474.00   0.63999313   0.01780803
4476.00   0.62025112   0.01772965
4478.00   0.64450592   0.01786729
4480.00   0.62921363   0.01782077
4482.00   0.65094852   0.01800731
4484.00   0.66423357   0.01810497
4486.00   0.66939306   0.01807185
4488.00   0.69589055   0.01828089
4490.00   0.66981494   0.01810583
4492.00   0.61912686   0.01782719
4494.00   0.63595217   0.01814586
4496.00   0.61889976   0.01787778
4498.00   0.63023990   0.01801761
4500.00   0.62795657   0.01794174
4502.00   0.64413351   0.01785197
4504.00   0.64094067   0.01785265
4506.00   0.61588031   0.01760154
4508.00   0.63262117   0.01767927
4510.00   0.63034397   0.01759194
4512.00   0.62707853   0.01750800
4514.00   0.59281105   0.01724696
4516.00   0.63103783   0.01738619
4518.00   0.59573227   0.01704532
4520.00   0.55972099   0.01696286
4522.00   0.57573634   0.01698092
4524.00   0.58213031   0.01695332
4526.00   0.55862176   0.01671868
4528.00   0.55982620   0.01673880
4530.00   0.52430367   0.01652624
4532.00   0.52438062   0.01649731
4534.00   0.64336908   0.01739191
4536.00   0.72123379   0.01823840
4538.00   0.64493173   0.01808086
4540.00   0.53802782   0.01648283
4542.00   0.50604254   0.01649291
4544.00   0.50867659   0.01670696
4546.00   0.53929460   0.01670068
4548.00   0.50189829   0.01630445
4550.00   0.53874016   0.01624944
4552.00   0.53759092   0.01630383
4554.00   0.52952218   0.01624202
4556.00   0.55274493   0.01658035
4558.00   0.53474545   0.01634717
4560.00   0.56398547   0.01638208
4562.00   0.55173850   0.01625418
4564.00   0.55960703   0.01620676
4566.00   0.54184180   0.01606169
4568.00   0.55887187   0.01618657
4570.00   0.49544063   0.01572129
4572.00   0.50729859   0.01583388
4574.00   0.54050493   0.01618049
4576.00   0.54677266   0.01608732
4578.00   0.53064346   0.01591224
4580.00   0.49163210   0.01559426
4582.00   0.48300081   0.01536928
4584.00   0.49929971   0.01529802
4586.00   0.52841526   0.01557844
4588.00   0.51638681   0.01558342
4590.00   0.54621297   0.01577717
4592.00   0.54351270   0.01564317
4594.00   0.53873706   0.01576170
4596.00   0.56716967   0.01586190
4598.00   0.54006809   0.01562009
4600.00   0.48651487   0.01514377
4602.00   0.46822453   0.01496647
4604.00   0.51019120   0.01532837
4606.00   0.51882154   0.01533765
4608.00   0.50897586   0.01551968
4610.00   0.51939642   0.01556491
