# File created by shivutils (I.Shivvers)
# wl(A)   flm    er(optional)
3614.00   2.03874516   0.05400382
3616.00   2.10464501   0.05430988
3618.00   2.14529371   0.05407357
3620.00   1.97911620   0.05240027
3622.00   1.99595547   0.05258884
3624.00   2.01711774   0.05265479
3626.00   2.03803921   0.05273950
3628.00   2.02893806   0.05274258
3630.00   2.04756331   0.05281658
3632.00   2.00453138   0.05214309
3634.00   2.06867194   0.05279496
3636.00   2.02417278   0.05236145
3638.00   2.00976610   0.05169460
3640.00   2.02852821   0.05237916
3642.00   1.95225441   0.05192751
3644.00   2.04270506   0.05211534
3646.00   2.07837820   0.05412296
3648.00   2.06064343   0.05820947
3650.00   2.05377054   0.05795867
3652.00   2.06308413   0.05528781
3654.00   2.02385998   0.05389614
3656.00   2.00615907   0.05165678
3658.00   2.15509129   0.05211683
3660.00   2.06756520   0.05261387
3662.00   2.06992602   0.05286953
3664.00   2.04587722   0.05107101
3666.00   2.02961493   0.04925933
3668.00   2.05009317   0.04902361
3670.00   2.00833678   0.04870999
3672.00   2.00795865   0.04824746
3674.00   2.06146765   0.04833465
3676.00   2.07488132   0.04823267
3678.00   2.05221224   0.04797784
3680.00   2.07026029   0.04798397
3682.00   2.07701397   0.04780234
3684.00   2.09763288   0.04764149
3686.00   2.07984185   0.04726598
3688.00   2.02890158   0.04704725
3690.00   2.02497363   0.04694200
3692.00   1.98424101   0.04612043
3694.00   2.01162386   0.04638153
3696.00   1.98822474   0.04642655
3698.00   2.04557037   0.04703331
3700.00   1.96840453   0.04616872
3702.00   2.01919127   0.04623621
3704.00   1.99665534   0.04556416
3706.00   1.97554040   0.04508096
3708.00   2.03994179   0.04550854
3710.00   2.00079560   0.04530966
3712.00   2.02110124   0.04553222
3714.00   1.94079459   0.04462611
3716.00   1.98054552   0.04434049
3718.00   1.99524224   0.04412407
3720.00   1.86625683   0.04273717
3722.00   1.81326699   0.04232976
3724.00   1.87898159   0.04289404
3726.00   1.82758355   0.04258427
3728.00   1.78310716   0.04186636
3730.00   1.74510872   0.04172114
3732.00   1.70576394   0.04102837
3734.00   1.70502317   0.04046500
3736.00   1.64660299   0.04018816
3738.00   1.66035819   0.04057285
3740.00   1.54960155   0.03950271
3742.00   1.52981937   0.03881915
3744.00   1.55385327   0.03868135
3746.00   1.50262344   0.03771596
3748.00   1.54782510   0.03806318
3750.00   1.55883420   0.03814767
3752.00   1.51401174   0.03801463
3754.00   1.49115062   0.03768614
3756.00   1.35618317   0.03607924
3758.00   1.35480785   0.03582067
3760.00   1.38820696   0.03595136
3762.00   1.34412384   0.03514358
3764.00   1.34432960   0.03507012
3766.00   1.30370545   0.03452639
3768.00   1.33442128   0.03491455
3770.00   1.29880285   0.03470391
3772.00   1.23301911   0.03412298
3774.00   1.20755792   0.03369539
3776.00   1.24120450   0.03390896
3778.00   1.24516869   0.03370979
3780.00   1.21993852   0.03360366
3782.00   1.20049298   0.03306957
3784.00   1.20837772   0.03307921
3786.00   1.17929268   0.03246973
3788.00   1.18483210   0.03255811
3790.00   1.13769233   0.03216457
3792.00   1.09708571   0.03146890
3794.00   1.11025870   0.03108131
3796.00   1.08217573   0.03084825
3798.00   1.07001686   0.03061556
3800.00   1.07977128   0.03094285
3802.00   1.13173270   0.03138370
3804.00   1.09814429   0.03076088
3806.00   1.07301450   0.03028539
3808.00   1.09625065   0.03042984
3810.00   1.13310838   0.03082404
3812.00   1.05967534   0.03014917
3814.00   1.01554954   0.02936528
3816.00   1.10876441   0.03021709
3818.00   1.08971524   0.02992753
3820.00   1.07124686   0.02960164
3822.00   1.05038071   0.02928380
3824.00   1.04051268   0.02909258
3826.00   1.07484579   0.02948149
3828.00   1.06872511   0.02964650
3830.00   1.15474689   0.03018003
3832.00   1.16157591   0.03012889
3834.00   1.17295599   0.03000324
3836.00   1.17194712   0.02989373
3838.00   1.16603088   0.02964877
3840.00   1.16582167   0.02988672
3842.00   1.17850077   0.02989418
3844.00   1.20429611   0.03008593
3846.00   1.16503072   0.02956573
3848.00   1.16973567   0.02952222
3850.00   1.23356259   0.02993842
3852.00   1.24128115   0.02985804
3854.00   1.26278543   0.02990925
3856.00   1.29373789   0.02985580
3858.00   1.23797500   0.02939314
3860.00   1.31436276   0.03004610
3862.00   1.25809252   0.02978207
3864.00   1.22741354   0.02918118
3866.00   1.28081024   0.02939530
3868.00   1.24290776   0.02894680
3870.00   1.18429816   0.02829736
3872.00   1.18649411   0.02855279
3874.00   1.19967663   0.02889548
3876.00   1.20206130   0.02855170
3878.00   1.24159038   0.02852792
3880.00   1.16322267   0.02785467
3882.00   1.19598866   0.02794460
3884.00   1.21318066   0.02809813
3886.00   1.17976522   0.02774194
3888.00   1.22381568   0.02801264
3890.00   1.26728392   0.02839745
3892.00   1.21999121   0.02809712
3894.00   1.23598099   0.02812769
3896.00   1.20933461   0.02787279
3898.00   1.18060958   0.02761100
3900.00   1.18111813   0.02765305
3902.00   1.21995461   0.02800171
3904.00   1.20034742   0.02874823
3906.00   1.18076944   0.02900254
3908.00   1.21386611   0.02945505
3910.00   1.23360217   0.02959893
3912.00   1.22690117   0.02917562
3914.00   1.26703358   0.02878131
3916.00   1.30138624   0.02874344
3918.00   1.24892545   0.02783096
3920.00   1.30062997   0.02802125
3922.00   1.29680276   0.02790425
3924.00   1.30189967   0.02778691
3926.00   1.37844002   0.02804507
3928.00   1.38236952   0.02798298
3930.00   1.31848717   0.02759844
3932.00   1.28086782   0.02716724
3934.00   1.38127136   0.02771182
3936.00   1.44313312   0.02835793
3938.00   1.46941614   0.02850132
3940.00   1.49802577   0.02896727
3942.00   1.52673876   0.02944308
3944.00   1.55598712   0.02966735
3946.00   1.53190339   0.02920962
3948.00   1.57167470   0.02944226
3950.00   1.62221646   0.02969482
3952.00   1.62076795   0.02947706
3954.00   1.65253055   0.02973500
3956.00   1.72960901   0.03025244
3958.00   1.75731385   0.03042218
3960.00   1.82415378   0.03103783
3962.00   1.80326676   0.03051875
3964.00   1.78854322   0.02978617
3966.00   1.79103303   0.02964907
3968.00   1.92702985   0.03047416
3970.00   1.96318710   0.03075427
3972.00   1.94462574   0.03078049
3974.00   1.98890579   0.03110749
3976.00   1.96500802   0.03104603
3978.00   1.99130023   0.03134049
3980.00   1.98567080   0.03113520
3982.00   2.06597447   0.03145311
3984.00   1.99533069   0.03103367
3986.00   2.02494812   0.03123127
3988.00   2.03417087   0.03126699
3990.00   2.09618807   0.03145356
3992.00   2.02817464   0.03108494
3994.00   2.04444337   0.03132392
3996.00   1.97227848   0.03102500
3998.00   2.04151702   0.03109735
4000.00   2.06451845   0.03110606
4002.00   2.03036356   0.03072673
4004.00   2.04195857   0.03061984
4006.00   2.05812168   0.03090145
4008.00   2.07783914   0.03096350
4010.00   1.97740054   0.03041593
4012.00   2.06986499   0.03095389
4014.00   2.07781863   0.03082093
4016.00   2.07662487   0.03096536
4018.00   2.06867099   0.03164898
4020.00   2.06751752   0.03190017
4022.00   2.08114767   0.03189813
4024.00   2.06866121   0.03143483
4026.00   2.11292267   0.03116562
4028.00   2.13769054   0.03098783
4030.00   2.17343259   0.03112674
4032.00   2.14345527   0.03068796
4034.00   2.17072320   0.03081122
4036.00   2.14532566   0.03073839
4038.00   2.15156484   0.03077931
4040.00   2.15180230   0.03073776
4042.00   2.13155746   0.03258145
4044.00   2.10288835   0.03719296
4046.00   2.07101345   0.03782232
4048.00   2.14506006   0.03372411
4050.00   2.20432401   0.03132375
4052.00   2.20543599   0.03119282
4054.00   2.19860578   0.03102836
4056.00   2.14438987   0.03034455
4058.00   2.19011092   0.03031651
4060.00   2.09433889   0.02973370
4062.00   2.09588385   0.02975679
4064.00   2.13506389   0.02995217
4066.00   2.14413118   0.02986320
4068.00   2.08301044   0.02944681
4070.00   2.06902862   0.02927109
4072.00   2.11006069   0.02955772
4074.00   2.21114182   0.03058484
4076.00   2.24370432   0.03134523
4078.00   2.22847152   0.03107477
4080.00   2.14243960   0.03023097
4082.00   2.10109258   0.02985048
4084.00   2.03833771   0.02926093
4086.00   1.99258816   0.02894737
4088.00   1.98052371   0.02850530
4090.00   2.01179743   0.02846256
4092.00   2.06063843   0.02854308
4094.00   2.03955340   0.02835442
4096.00   1.99541008   0.02809387
4098.00   1.96561778   0.02785278
4100.00   1.96806300   0.02769235
4102.00   2.04186702   0.02794953
4104.00   2.02415109   0.02791740
4106.00   2.04834867   0.02804311
4108.00   2.02720690   0.02793869
4110.00   2.09126568   0.02816978
4112.00   2.02596354   0.02785513
4114.00   2.05562210   0.02794504
4116.00   2.01734900   0.02771029
4118.00   2.11685872   0.02813432
4120.00   2.09386683   0.02795251
4122.00   2.07981730   0.02795456
4124.00   2.04377770   0.02773898
4126.00   2.10348177   0.02799598
4128.00   2.10141134   0.02788209
4130.00   2.09482980   0.02804330
4132.00   2.14199662   0.02826942
4134.00   2.18056393   0.02835553
4136.00   2.20165038   0.02844886
4138.00   2.22215152   0.02863553
4140.00   2.22736907   0.02856717
4142.00   2.22584248   0.02823798
4144.00   2.19173169   0.02790283
4146.00   2.17779064   0.02785735
4148.00   2.23162651   0.02819534
4150.00   2.22399640   0.02832549
4152.00   2.23255038   0.02838231
4154.00   2.24159002   0.02820002
4156.00   2.24691772   0.02803707
4158.00   2.24870682   0.02805316
4160.00   2.26020575   0.02810936
4162.00   2.26760697   0.02846981
4164.00   2.26369119   0.02858493
4166.00   2.29093480   0.02839701
4168.00   2.28311372   0.02805207
4170.00   2.29209280   0.02796011
4172.00   2.26602817   0.02771992
4174.00   2.26821399   0.02767128
4176.00   2.26099777   0.02763950
4178.00   2.26856875   0.02762622
4180.00   2.28353834   0.02755131
4182.00   2.27329326   0.02741156
4184.00   2.25024343   0.02724616
4186.00   2.22796988   0.02705923
4188.00   2.25807309   0.02726585
4190.00   2.23748565   0.02718250
4192.00   2.27206230   0.02722100
4194.00   2.29100370   0.02720551
4196.00   2.25701284   0.02695139
4198.00   2.30162191   0.02707090
4200.00   2.21711707   0.02661281
4202.00   2.24937701   0.02689794
4204.00   2.19542742   0.02664272
4206.00   2.11994004   0.02626406
4208.00   2.14680839   0.02642667
4210.00   2.16299248   0.02642726
4212.00   2.11815190   0.02618766
4214.00   2.16540766   0.02630344
4216.00   2.07998610   0.02582397
4218.00   2.08687258   0.02588519
4220.00   2.03321695   0.02560658
4222.00   2.06413460   0.02561232
4224.00   2.06225157   0.02543896
4226.00   1.97171855   0.02502464
4228.00   1.96889186   0.02505959
4230.00   1.96779561   0.02511464
4232.00   1.95000339   0.02499337
4234.00   1.93308926   0.02486476
4236.00   1.94738615   0.02499124
4238.00   1.90170455   0.02479300
4240.00   1.91872382   0.02470164
4242.00   1.95773780   0.02493100
4244.00   1.90366769   0.02520576
4246.00   1.92159832   0.02552834
4248.00   1.93051445   0.02496666
4250.00   1.91416442   0.02455191
4252.00   1.90238571   0.02437104
4254.00   1.89994645   0.02435016
4256.00   1.88861740   0.02437267
4258.00   1.86482966   0.02408011
4260.00   1.86586058   0.02406031
4262.00   1.87131333   0.02413593
4264.00   1.89152932   0.02418106
4266.00   1.92130160   0.02427471
4268.00   1.94144917   0.02436754
4270.00   1.93843853   0.02419991
4272.00   1.90728891   0.02412244
4274.00   1.93149817   0.02417185
4276.00   1.98932803   0.02457522
4278.00   1.96862721   0.02448005
4280.00   1.97622144   0.02443160
4282.00   1.97523332   0.02446861
4284.00   1.96738803   0.02421325
4286.00   1.90818787   0.02394910
4288.00   1.88653862   0.02376890
4290.00   1.92796659   0.02401060
4292.00   1.87776482   0.02380279
4294.00   1.83344150   0.02351220
4296.00   1.83011341   0.02340494
4298.00   1.78187668   0.02308349
4300.00   1.76164567   0.02285047
4302.00   1.75697064   0.02290895
4304.00   1.74420691   0.02287325
4306.00   1.74871290   0.02279713
4308.00   1.72452462   0.02271118
4310.00   1.71487916   0.02287184
4312.00   1.66536319   0.02300536
4314.00   1.73907948   0.02341566
4316.00   1.69466805   0.02300800
4318.00   1.68533123   0.02298869
4320.00   1.65341258   0.02285798
4322.00   1.63740909   0.02267734
4324.00   1.62626755   0.02246239
4326.00   1.62007618   0.02230883
4328.00   1.59074211   0.02202623
4330.00   1.62010503   0.02211047
4332.00   1.59279668   0.02197087
4334.00   1.59245718   0.02193389
4336.00   1.55770099   0.02186192
4338.00   1.52826142   0.02175667
4340.00   1.53231549   0.02171225
4342.00   1.56217992   0.02191444
4344.00   1.54771304   0.02213857
4346.00   1.56274235   0.02239284
4348.00   1.54405582   0.02217514
4350.00   1.51845062   0.02191383
4352.00   1.54492557   0.02218298
4354.00   1.50899911   0.02560011
4356.00   1.52968812   0.03134386
4358.00   1.53818583   0.03218107
4360.00   1.49627578   0.02707178
4362.00   1.46867323   0.02323531
4364.00   1.43348432   0.02185653
4366.00   1.48219681   0.02182360
4368.00   1.47963202   0.02162985
4370.00   1.44406509   0.02144940
4372.00   1.42506301   0.02155556
4374.00   1.42555642   0.02152096
4376.00   1.42759466   0.02126336
4378.00   1.43722892   0.02112070
4380.00   1.38431752   0.02073946
4382.00   1.36030591   0.02053646
4384.00   1.34519744   0.02038793
4386.00   1.29530144   0.02015186
4388.00   1.35728192   0.02056219
4390.00   1.32687175   0.02031676
4392.00   1.30161893   0.02020175
4394.00   1.27392590   0.02002360
4396.00   1.24455488   0.01993174
4398.00   1.24520242   0.02009916
4400.00   1.25247777   0.02017213
4402.00   1.24683213   0.01999945
4404.00   1.20363510   0.01969136
4406.00   1.18397439   0.01956694
4408.00   1.15585530   0.01951689
4410.00   1.19238341   0.01969656
4412.00   1.17392004   0.01973030
4414.00   1.16916645   0.01968864
4416.00   1.14760399   0.01949791
4418.00   1.11945677   0.01934076
4420.00   1.15644252   0.01944404
4422.00   1.14432788   0.01940283
4424.00   1.13512003   0.01950414
4426.00   1.17334223   0.01939962
4428.00   1.21311271   0.01958576
4430.00   1.13682926   0.01924081
4432.00   1.16921091   0.01942382
4434.00   1.18563449   0.01945690
4436.00   1.15457916   0.01933936
4438.00   1.20550227   0.01959168
4440.00   1.20099652   0.01955080
4442.00   1.22175169   0.01962363
4444.00   1.19872415   0.01950478
4446.00   1.21844471   0.01955224
4448.00   1.25440919   0.01977639
4450.00   1.27780545   0.01983518
4452.00   1.22642255   0.01948422
4454.00   1.24023318   0.01958204
4456.00   1.23831272   0.01957587
4458.00   1.23414230   0.01949857
4460.00   1.22974718   0.01949559
4462.00   1.23783314   0.01949133
4464.00   1.29142034   0.01979327
4466.00   1.30232286   0.01982724
4468.00   1.29536033   0.01975453
4470.00   1.27623427   0.01963520
4472.00   1.31997561   0.01986638
4474.00   1.34182668   0.01994649
4476.00   1.31613588   0.01988060
4478.00   1.32895124   0.01988663
4480.00   1.38396478   0.02012685
4482.00   1.34900355   0.02001108
4484.00   1.38642764   0.02018897
4486.00   1.36931789   0.02013142
4488.00   1.38999498   0.02012664
4490.00   1.35890186   0.02007389
4492.00   1.41140831   0.02027396
4494.00   1.40996051   0.02022589
4496.00   1.41185522   0.02031083
4498.00   1.38348079   0.02018715
4500.00   1.38798809   0.02011198
4502.00   1.39537466   0.02005598
4504.00   1.38705206   0.02003379
4506.00   1.39260197   0.02000171
4508.00   1.35941303   0.01978624
4510.00   1.30797315   0.01951059
4512.00   1.33739996   0.01966013
4514.00   1.34635770   0.01962305
4516.00   1.36108696   0.01967566
4518.00   1.32199681   0.01943863
4520.00   1.29910421   0.01928791
4522.00   1.29698217   0.01925857
4524.00   1.26315248   0.01906021
4526.00   1.29365110   0.01915229
4528.00   1.23067808   0.01879810
4530.00   1.29496372   0.01901367
4532.00   1.23845136   0.01875127
4534.00   1.24077940   0.01874115
4536.00   1.21642268   0.01863642
4538.00   1.21754062   0.01862949
4540.00   1.20041418   0.01860870
4542.00   1.18532979   0.01850814
4544.00   1.19487488   0.01853403
4546.00   1.20787215   0.01854659
4548.00   1.22254467   0.01848498
4550.00   1.20780492   0.01837541
4552.00   1.23603809   0.01847986
4554.00   1.25840485   0.01856973
4556.00   1.23674011   0.01846300
4558.00   1.27490139   0.01866196
4560.00   1.27446473   0.01857661
4562.00   1.32973981   0.01880320
4564.00   1.34865499   0.01878843
4566.00   1.33898258   0.01879949
4568.00   1.30722356   0.01874322
4570.00   1.34002888   0.01882804
4572.00   1.32504404   0.01880923
4574.00   1.36427391   0.01893469
4576.00   1.37052798   0.01891652
4578.00   1.35577309   0.01881706
4580.00   1.36302531   0.01878997
4582.00   1.34889662   0.01868644
4584.00   1.39830303   0.01884123
4586.00   1.40290821   0.01887116
4588.00   1.40060568   0.01880650
4590.00   1.42717421   0.01888024
4592.00   1.42952609   0.01884298
4594.00   1.44873166   0.01896294
4596.00   1.45583427   0.01898302
4598.00   1.41933966   0.01878480
4600.00   1.44601309   0.01876481
4602.00   1.44306314   0.01880524
4604.00   1.44997108   0.01878710
4606.00   1.43200517   0.01873852
4608.00   1.44812810   0.01881073
4610.00   1.42699838   0.01867878
4612.00   1.44210660   0.01872830
4614.00   1.45465910   0.01869418
4616.00   1.45505238   0.01868418
4618.00   1.45551527   0.01869146
4620.00   1.42562544   0.01857133
4622.00   1.44584382   0.01861338
4624.00   1.44303727   0.01858137
4626.00   1.46728730   0.01870566
4628.00   1.45844007   0.01860935
4630.00   1.47171080   0.01862796
4632.00   1.44057381   0.01855716
4634.00   1.43123114   0.01844038
4636.00   1.44071233   0.01847304
4638.00   1.42711008   0.01841410
4640.00   1.42784035   0.01838928
4642.00   1.43294656   0.01840450
4644.00   1.42196536   0.01827896
4646.00   1.39630532   0.01814918
4648.00   1.41000450   0.01822889
4650.00   1.40201688   0.01825410
4652.00   1.39262772   0.01819594
4654.00   1.37220180   0.01815367
4656.00   1.37826526   0.01823270
4658.00   1.41190231   0.01835852
4660.00   1.40804160   0.01839750
4662.00   1.39275193   0.01837407
4664.00   1.40637493   0.01842877
4666.00   1.38629365   0.01835457
4668.00   1.37423682   0.01840816
4670.00   1.38939202   0.01853811
4672.00   1.40619981   0.01853624
4674.00   1.37841415   0.01827322
4676.00   1.36420059   0.01818993
4678.00   1.41109192   0.01829026
4680.00   1.38800311   0.01814166
4682.00   1.39262915   0.01813683
4684.00   1.38637376   0.01806461
4686.00   1.40800381   0.01817433
4688.00   1.41820979   0.01816728
4690.00   1.41952491   0.01814937
4692.00   1.41052151   0.01809001
4694.00   1.41222107   0.01808921
4696.00   1.40995800   0.01805929
4698.00   1.44666409   0.01816617
4700.00   1.41708684   0.01799356
4702.00   1.43092668   0.01810208
4704.00   1.43628979   0.01812381
4706.00   1.40332079   0.01804407
4708.00   1.44626904   0.01822933
4710.00   1.43379140   0.01820613
4712.00   1.41106391   0.01804521
4714.00   1.42071187   0.01804996
4716.00   1.42005122   0.01804484
4718.00   1.43957996   0.01807947
4720.00   1.41535258   0.01794193
4722.00   1.41069603   0.01788643
4724.00   1.40153420   0.01785600
4726.00   1.41091776   0.01808356
4728.00   1.40394127   0.01821280
4730.00   1.39683414   0.01824512
4732.00   1.37659717   0.01812693
4734.00   1.40298676   0.01833593
4736.00   1.39421105   0.01835830
4738.00   1.41296804   0.01852987
4740.00   1.42200351   0.01880555
4742.00   1.39892936   0.01870043
4744.00   1.38979518   0.01840353
4746.00   1.37653196   0.01797008
4748.00   1.35124230   0.01769495
4750.00   1.34335506   0.01775102
4752.00   1.32482576   0.01763704
4754.00   1.30251455   0.01736664
4756.00   1.30110538   0.01721513
4758.00   1.30996215   0.01717490
4760.00   1.25931835   0.01685084
4762.00   1.26331961   0.01682533
4764.00   1.26278389   0.01682915
4766.00   1.27379298   0.01683646
4768.00   1.25860250   0.01673722
4770.00   1.23242176   0.01662304
4772.00   1.21120393   0.01645198
4774.00   1.20628738   0.01651302
4776.00   1.25820398   0.01692949
4778.00   1.20179284   0.01664331
4780.00   1.20133698   0.01663276
4782.00   1.18943298   0.01643084
4784.00   1.18447900   0.01635924
