# File created by shivutils (I.Shivvers)
# Blotched regions marked with a #.
# wl(A)   flm    er(optional)
3440.00   0.06728563
3442.00   0.12503858
3444.00   0.04777023
3446.00   0.04437257
3448.00   0.07486656
3450.00   0.03776883
3452.00   0.10455343
3454.00   0.04677014
3456.00   0.05626685
3458.00   0.04967026
3460.00   0.03646440
3462.00   0.15085581
3464.00   0.00693236
3466.00   0.08761565
3468.00   0.15548187
3470.00   0.08096074
3472.00   0.06067229
3474.00   0.06906231
3476.00   0.06452185
3478.00   0.00713431
3480.00   0.04416788
3482.00   0.05406182
3484.00   -0.04398712
3486.00   0.01331419
3488.00   0.03070575
3490.00   0.03844973
3492.00   0.00170715
3494.00   0.02524095
3496.00   0.05849859
3498.00   0.05616756
3500.00   0.04763216
3502.00   0.01488307
3504.00   0.06661776
3506.00   0.08105160
3508.00   0.03312257
3510.00   0.09537787
3512.00   0.05806103
3514.00   0.01274326
3516.00   0.04739999
3518.00   0.05147532
3520.00   0.06994217
3522.00   -0.02727015
3524.00   0.07701117
3526.00   0.04785786
3528.00   0.03209782
3530.00   0.04458427
3532.00   0.04533900
3534.00   0.06724761
3536.00   0.08536609
3538.00   -0.00676741
3540.00   0.04332808
3542.00   0.02093140
3544.00   0.19571587
3546.00   0.07312637
3548.00   0.05693308
3550.00   0.01991343
3552.00   0.03528614
3554.00   0.16225317
3556.00   0.05793914
3558.00   0.08656897
3560.00   0.10010946
3562.00   0.05310372
3564.00   0.03007847
3566.00   0.06112750
3568.00   0.02781167
3570.00   0.01640848
3572.00   -0.00535322
3574.00   0.01355706
3576.00   0.05647989
3578.00   0.03760379
3580.00   0.10117763
3582.00   0.01698685
3584.00   0.02411327
3586.00   0.05217398
3588.00   0.12051078
3590.00   0.10323447
3592.00   0.05407421
3594.00   0.05353911
3596.00   0.07798077
3598.00   0.05870545
3600.00   0.10394788
3602.00   0.09836613
3604.00   0.08219834
3606.00   0.06118174
3608.00   0.04776853
3610.00   0.05889211
3612.00   -0.00507556
3614.00   0.05874886
3616.00   0.10429882
3618.00   0.03986348
3620.00   0.10785354
3622.00   0.03011968
3624.00   0.11783392
3626.00   0.05691310
3628.00   0.08092163
3630.00   0.07624884
3632.00   0.03028462
3634.00   -0.01204841
3636.00   0.10393808
3638.00   0.05181863
3640.00   0.04185510
3642.00   0.02782924
3644.00   0.09249604
3646.00   0.09578811
3648.00   0.04255727
3650.00   0.08965286
3652.00   0.10655598
3654.00   -0.01911444
3656.00   0.04095471
3658.00   0.09891922
3660.00   0.09749186
3662.00   0.11832841
3664.00   0.05062910
3666.00   0.03390751
3668.00   0.06906026
3670.00   0.05798427
3672.00   0.02779647
3674.00   0.03820324
3676.00   0.04829476
3678.00   0.10798251
3680.00   0.07215434
3682.00   0.05973004
3684.00   0.11700361
3686.00   0.10967160
3688.00   0.04553978
3690.00   0.03633859
3692.00   0.06095989
3694.00   0.09755904
3696.00   0.05600931
3698.00   0.06728769
3700.00   0.05515580
3702.00   0.12943836
3704.00   0.09318288
3706.00   0.05533652
3708.00   0.10671442
3710.00   0.11159674
3712.00   0.06688885
3714.00   0.11041259
3716.00   0.12571760
3718.00   0.09493761
3720.00   0.09471805
3722.00   0.08499595
3724.00   0.11132170
3726.00   0.09058600
3728.00   0.12080034
3730.00   0.10661526
3732.00   0.10659835
3734.00   0.06288395
3736.00   0.12783502
3738.00   0.09256794
3740.00   0.06563642
3742.00   0.08761086
3744.00   0.08831424
3746.00   0.09023824
3748.00   0.13530202
3750.00   0.07575706
3752.00   0.09237827
3754.00   0.09765398
3756.00   0.07380354
3758.00   0.09756865
3760.00   0.13117824
3762.00   0.07811642
3764.00   0.12393244
3766.00   0.09814952
3768.00   0.10430314
3770.00   0.06119632
3772.00   0.08508525
3774.00   0.05980079
3776.00   0.08718500
3778.00   0.01642449
3780.00   0.05707943
3782.00   0.07755103
3784.00   0.07793017
3786.00   0.11151022
3788.00   0.08717337
3790.00   0.09863254
3792.00   0.14673866
3794.00   0.11870011
3796.00   0.10893831
3798.00   0.04593635
3800.00   0.10518792
3802.00   0.10698463
3804.00   0.10313637
3806.00   0.07811102
3808.00   0.10461238
3810.00   0.13691159
3812.00   0.08893375
3814.00   0.08188101
3816.00   0.11325468
3818.00   0.09302978
3820.00   0.03724077
3822.00   0.09015246
3824.00   0.08647568
3826.00   0.09672066
3828.00   0.05215977
3830.00   0.04137786
3832.00   0.03467435
3834.00   0.08173225
3836.00   0.03696636
3838.00   0.06371719
3840.00   0.07223698
3842.00   0.07702589
3844.00   0.09644326
3846.00   0.06064647
3848.00   0.08449025
3850.00   0.06583039
3852.00   0.05745677
3854.00   0.04300823
3856.00   0.07923705
3858.00   0.04696032
3860.00   0.06013898
3862.00   0.04826478
3864.00   0.04455432
3866.00   0.04044226
3868.00   0.03512375
3870.00   0.06891223
3872.00   0.05548774
3874.00   0.06196886
3876.00   0.03294072
3878.00   0.07984016
3880.00   0.05110274
3882.00   0.05645918
3884.00   0.05945351
3886.00   0.06076634
3888.00   0.03569683
3890.00   0.10413591
3892.00   0.10402493
3894.00   0.07615317
3896.00   0.06660341
3898.00   0.07935626
3900.00   0.06822730
3902.00   0.07814395
3904.00   0.07267514
3906.00   0.06147252
3908.00   0.07470492
3910.00   0.05757850
3912.00   0.07476092
3914.00   0.10624964
3916.00   0.08489800
3918.00   0.09738981
3920.00   0.08634970
3922.00   0.08910599
3924.00   0.09795519
3926.00   0.07258578
3928.00   0.07577007
3930.00   0.13417135
3932.00   0.10846188
3934.00   0.10305165
3936.00   0.12358999
3938.00   0.09850849
3940.00   0.10407411
3942.00   0.06482677
3944.00   0.09020521
3946.00   0.09984148
3948.00   0.16028662
3950.00   0.11812989
3952.00   0.08521756
3954.00   0.12643500
3956.00   0.10563258
3958.00   0.14789191
3960.00   0.10559970
3962.00   0.11457136
3964.00   0.12910816
3966.00   0.11762527
3968.00   0.12619865
3970.00   0.12344903
3972.00   0.14281949
3974.00   0.10664187
3976.00   0.14082563
3978.00   0.13932618
3980.00   0.13930903
3982.00   0.13654499
3984.00   0.16533405
3986.00   0.16608718
3988.00   0.13316993
3990.00   0.13389257
3992.00   0.14015125
3994.00   0.13231373
3996.00   0.11662427
3998.00   0.17653044
4000.00   0.14516196
4002.00   0.12783535
4004.00   0.14094573
4006.00   0.15331841
4008.00   0.14269315
4010.00   0.11809874
4012.00   0.13011427
4014.00   0.13245673
4016.00   0.13661964
4018.00   0.17529076
4020.00   0.16071798
4022.00   0.19374464
4024.00   0.18762624
4026.00   0.13890968
4028.00   0.19844772
4030.00   0.13807850
4032.00   0.17313027
4034.00   0.16632946
4036.00   0.21427919
4038.00   0.17754054
4040.00   0.16607183
4042.00   0.14575295
4044.00   0.16811912
4046.00   0.16052733
4048.00   0.16936742
4050.00   0.14258079
4052.00   0.14730731
4054.00   0.16789480
4056.00   0.14819033
4058.00   0.14213571
4060.00   0.14425404
4062.00   0.13468997
4064.00   0.14615524
4066.00   0.14347948
4068.00   0.13247961
4070.00   0.13977152
4072.00   0.15512282
4074.00   0.13090396
4076.00   0.13640650
4078.00   0.13367756
4080.00   0.14086594
4082.00   0.12483530
4084.00   0.11524195
4086.00   0.12104465
4088.00   0.11685868
4090.00   0.10406347
4092.00   0.12288810
4094.00   0.11236596
4096.00   0.13078453
4098.00   0.09711121
4100.00   0.12050373
4102.00   0.10932712
4104.00   0.12328964
4106.00   0.13838427
4108.00   0.15326697
4110.00   0.12769586
4112.00   0.11250674
4114.00   0.11991363
4116.00   0.11374436
4118.00   0.09674636
4120.00   0.10621540
4122.00   0.13017438
4124.00   0.12234950
4126.00   0.13261148
4128.00   0.14509468
4130.00   0.13217567
4132.00   0.14122769
4134.00   0.13693827
4136.00   0.11620244
4138.00   0.10103604
4140.00   0.12356184
4142.00   0.08167218
4144.00   0.12730473
4146.00   0.11305221
4148.00   0.09737424
4150.00   0.12707220
4152.00   0.10868470
4154.00   0.12770773
4156.00   0.11175857
4158.00   0.12098702
4160.00   0.12553117
4162.00   0.11430673
4164.00   0.11767443
4166.00   0.12234126
4168.00   0.10744247
4170.00   0.11716612
4172.00   0.10619668
4174.00   0.10587793
4176.00   0.08577754
4178.00   0.10311749
4180.00   0.11678135
4182.00   0.08590014
4184.00   0.10941547
4186.00   0.09604979
4188.00   0.12072937
4190.00   0.10893544
4192.00   0.09936664
4194.00   0.10371105
4196.00   0.09887497
4198.00   0.10370059
4200.00   0.10636469
4202.00   0.09849805
4204.00   0.11614712
4206.00   0.10419647
4208.00   0.10664594
4210.00   0.11755350
4212.00   0.10910866
4214.00   0.11495253
4216.00   0.09755481
4218.00   0.11868007
4220.00   0.13456331
4222.00   0.11275970
4224.00   0.08326325
4226.00   0.09738536
4228.00   0.10905463
4230.00   0.08833148
4232.00   0.10468756
4234.00   0.11756553
4236.00   0.10269316
4238.00   0.10960291
4240.00   0.10452554
4242.00   0.10985608
4244.00   0.11231954
4246.00   0.10769075
4248.00   0.15482821
4250.00   0.14514782
4252.00   0.12499714
4254.00   0.13932219
4256.00   0.12624937
4258.00   0.12305910
4260.00   0.13694347
4262.00   0.11506779
4264.00   0.11807182
4266.00   0.14241159
4268.00   0.13620107
4270.00   0.13738085
4272.00   0.12098707
4274.00   0.14138681
4276.00   0.13239369
4278.00   0.11554403
4280.00   0.13760443
4282.00   0.12494076
4284.00   0.11453211
4286.00   0.12458380
4288.00   0.10234383
4290.00   0.13993634
4292.00   0.13985008
4294.00   0.14320600
4296.00   0.15548369
4298.00   0.14132516
4300.00   0.13340673
4302.00   0.13178839
4304.00   0.13082916
4306.00   0.12636910
4308.00   0.12997544
4310.00   0.13732961
4312.00   0.12992001
4314.00   0.14548714
4316.00   0.12553938
4318.00   0.12355656
4320.00   0.11262818
4322.00   0.10495851
4324.00   0.12805127
4326.00   0.09294870
4328.00   0.11654757
4330.00   0.17183363
4332.00   0.13456275
4334.00   0.13546401
4336.00   0.14624752
4338.00   0.13739240
4340.00   0.14525954
4342.00   0.13716435
4344.00   0.13115256
4346.00   0.12598832
4348.00   0.12793756
4350.00   0.14114055
4352.00   0.13195673
4354.00   0.10400293
4356.00   0.12110447
4358.00   0.19276929
4360.00   0.17813970
4362.00   0.13205014
4364.00   0.15216856
4366.00   0.12776302
4368.00   0.13548636
4370.00   0.14353336
4372.00   0.11830665
4374.00   0.12654212
4376.00   0.14441672
4378.00   0.14267077
4380.00   0.11570451
4382.00   0.14299850
4384.00   0.14236432
4386.00   0.14087607
4388.00   0.15714708
4390.00   0.14186528
4392.00   0.15226972
4394.00   0.14599110
4396.00   0.14979643
4398.00   0.12772928
4400.00   0.13355599
4402.00   0.14088413
4404.00   0.14347400
4406.00   0.13589163
4408.00   0.12592433
4410.00   0.13378482
4412.00   0.12868287
4414.00   0.11261403
4416.00   0.12359777
4418.00   0.14997098
4420.00   0.08857001
4422.00   0.12729111
4424.00   0.13288912
4426.00   0.12323368
4428.00   0.10889033
4430.00   0.11114030
4432.00   0.10946596
4434.00   0.13151664
4436.00   0.11012997
4438.00   0.09202207
4440.00   0.10777360
4442.00   0.11374115
4444.00   0.14559138
4446.00   0.10834280
4448.00   0.10654137
4450.00   0.10587113
4452.00   0.10283197
4454.00   0.10493854
4456.00   0.09439863
4458.00   0.10427583
4460.00   0.10359553
4462.00   0.09051590
4464.00   0.10580325
4466.00   0.10418733
4468.00   0.08995672
4470.00   0.09736057
4472.00   0.06955738
4474.00   0.08830371
4476.00   0.10101661
4478.00   0.07929862
4480.00   0.11419346
4482.00   0.07509514
4484.00   0.08446949
4486.00   0.08264795
4488.00   0.07649478
4490.00   0.10206422
4492.00   0.11624699
4494.00   0.07630353
4496.00   0.07700364
4498.00   0.07792275
4500.00   0.08129120
4502.00   0.08870430
4504.00   0.07557274
4506.00   0.09124953
4508.00   0.07734837
4510.00   0.09527515
4512.00   0.10807197
4514.00   0.09360646
4516.00   0.11234068
4518.00   0.05923815
4520.00   0.09318817
4522.00   0.09475046
4524.00   0.10620891
4526.00   0.07159795
4528.00   0.10688869
4530.00   0.08671975
4532.00   0.11596255
4534.00   0.10989049
4536.00   0.08180556
4538.00   0.08656637
4540.00   0.09071597
4542.00   0.10390013
4544.00   0.10424111
4546.00   0.12180421
4548.00   0.10433869
4550.00   0.10030840
4552.00   0.10109591
4554.00   0.10487356
4556.00   0.09212285
4558.00   0.10355526
4560.00   0.09340817
4562.00   0.08841112
4564.00   0.09953249
4566.00   0.13313605
4568.00   0.10747327
4570.00   0.10241041
4572.00   0.13559289
4574.00   0.14122413
4576.00   0.10389594
4578.00   0.11789985
4580.00   0.11565590
4582.00   0.11909326
4584.00   0.13948390
4586.00   0.11184011
4588.00   0.10680095
4590.00   0.12376036
4592.00   0.12260884
4594.00   0.15198615
4596.00   0.14787064
4598.00   0.12776864
4600.00   0.14312072
4602.00   0.13165464
4604.00   0.14233221
4606.00   0.14213128
4608.00   0.15361974
4610.00   0.14892207
4612.00   0.17242697
4614.00   0.17382377
4616.00   0.18534397
4618.00   0.19607146
4620.00   0.20621315
4622.00   0.18431921
4624.00   0.18646555
4626.00   0.19643317
4628.00   0.20275027
4630.00   0.22756015
4632.00   0.19978984
4634.00   0.22214118
4636.00   0.22947676
4638.00   0.22932842
4640.00   0.22768678
4642.00   0.24531005
4644.00   0.23793332
4646.00   0.25563672
4648.00   0.23539995
4650.00   0.26323095
4652.00   0.25736731
4654.00   0.24715278
4656.00   0.25639293
4658.00   0.26834074
4660.00   0.28923467
4662.00   0.26993051
4664.00   0.27269474
4666.00   0.25754717
4668.00   0.28874570
4670.00   0.29436800
4672.00   0.29675734
4674.00   0.28650692
4676.00   0.29483366
4678.00   0.31241193
4680.00   0.31741235
4682.00   0.30159423
4684.00   0.29138756
4686.00   0.30813596
4688.00   0.30437616
4690.00   0.33108643
4692.00   0.34262970
4694.00   0.31299737
4696.00   0.31866771
4698.00   0.32163656
4700.00   0.31479210
4702.00   0.31930226
4704.00   0.32796633
4706.00   0.31038505
4708.00   0.33539060
4710.00   0.30764565
4712.00   0.32414359
4714.00   0.32445917
4716.00   0.31998360
4718.00   0.28791240
4720.00   0.27858725
4722.00   0.28692129
4724.00   0.28672796
4726.00   0.26422226
4728.00   0.26207533
4730.00   0.26743519
4732.00   0.25819436
4734.00   0.25863037
4736.00   0.26732197
4738.00   0.25480846
4740.00   0.22111921
4742.00   0.22542900
4744.00   0.21798615
4746.00   0.22294265
4748.00   0.21680385
4750.00   0.20320562
4752.00   0.19538629
4754.00   0.20172901
4756.00   0.19347787
4758.00   0.19814765
4760.00   0.19733992
4762.00   0.17963025
4764.00   0.19461942
4766.00   0.17473787
4768.00   0.17675637
4770.00   0.18017004
4772.00   0.17282777
4774.00   0.17226586
4776.00   0.16023539
4778.00   0.15831186
4780.00   0.15999496
4782.00   0.14339463
4784.00   0.16272479
4786.00   0.14545219
4788.00   0.15056644
4790.00   0.14568338
4792.00   0.15162089
4794.00   0.15745524
4796.00   0.13808082
4798.00   0.13085124
4800.00   0.13297005
4802.00   0.13398236
4804.00   0.14858489
4806.00   0.13316403
4808.00   0.13900831
4810.00   0.13777350
4812.00   0.14081869
4814.00   0.13054438
4816.00   0.14028709
4818.00   0.13366696
4820.00   0.13075058
4822.00   0.12109283
4824.00   0.13471322
4826.00   0.11309854
4828.00   0.12794136
4830.00   0.14225221
4832.00   0.11928166
4834.00   0.11709464
4836.00   0.14643300
4838.00   0.12450658
4840.00   0.13626015
4842.00   0.12436511
4844.00   0.13940686
4846.00   0.13143140
4848.00   0.12624039
4850.00   0.13604009
4852.00   0.13297820
4854.00   0.14042497
4856.00   0.11685793
4858.00   0.14747603
4860.00   0.14753245
4862.00   0.12990172
4864.00   0.14797458
4866.00   0.14593720
4868.00   0.14581764
4870.00   0.14968713
4872.00   0.14739466
4874.00   0.16059928
4876.00   0.16205351
4878.00   0.17052604
4880.00   0.15944485
4882.00   0.14427039
4884.00   0.18200932
4886.00   0.15477729
4888.00   0.17234594
4890.00   0.17515618
4892.00   0.17101064
4894.00   0.17714383
4896.00   0.17227861
4898.00   0.16765453
4900.00   0.16034910
4902.00   0.16355945
4904.00   0.18718410
4906.00   0.16236795
4908.00   0.15941696
4910.00   0.17068677
4912.00   0.16364117
4914.00   0.16083816
4916.00   0.15280305
4918.00   0.17476289
4920.00   0.15239766
4922.00   0.16695468
4924.00   0.14820684
4926.00   0.15847309
4928.00   0.16321266
4930.00   0.16760874
4932.00   0.17690925
4934.00   0.15620083
4936.00   0.17521450
4938.00   0.16448578
4940.00   0.15286814
4942.00   0.17300688
4944.00   0.17624326
4946.00   0.16114002
4948.00   0.15800607
4950.00   0.17250040
4952.00   0.16826661
4954.00   0.17878681
4956.00   0.16866957
4958.00   0.17487961
4960.00   0.18517494
4962.00   0.16466200
4964.00   0.17508997
4966.00   0.16372287
4968.00   0.18431626
4970.00   0.18891996
4972.00   0.18551517
4974.00   0.17994456
4976.00   0.17692108
4978.00   0.18039179
4980.00   0.19598192
4982.00   0.18681753
4984.00   0.19353433
4986.00   0.18316315
4988.00   0.19270541
4990.00   0.16989332
4992.00   0.21067576
4994.00   0.20482811
4996.00   0.18481824
4998.00   0.20213851
5000.00   0.21671124
5002.00   0.20383765
5004.00   0.20464213
5006.00   0.20168194
5008.00   0.23998326
5010.00   0.22731812
5012.00   0.24400206
5014.00   0.22240812
5016.00   0.22538684
5018.00   0.22517666
5020.00   0.22096616
5022.00   0.21277685
5024.00   0.23331463
5026.00   0.23784599
5028.00   0.23599680
5030.00   0.23822381
5032.00   0.22034414
5034.00   0.23331930
5036.00   0.21642569
5038.00   0.22447263
5040.00   0.22149052
5042.00   0.23708083
5044.00   0.22937502
5046.00   0.23804665
5048.00   0.22632264
5050.00   0.21769345
5052.00   0.20118295
5054.00   0.20067276
5056.00   0.20312431
5058.00   0.21028689
5060.00   0.21073711
5062.00   0.19748256
5064.00   0.19196917
5066.00   0.20790093
5068.00   0.19785666
5070.00   0.19300793
5072.00   0.18195003
5074.00   0.19853434
5076.00   0.19400688
5078.00   0.18047653
5080.00   0.19407064
5082.00   0.17097808
5084.00   0.16077837
5086.00   0.19731750
5088.00   0.19647275
5090.00   0.17616577
5092.00   0.18658827
5094.00   0.17322944
5096.00   0.16444355
5098.00   0.16151319
5100.00   0.16494289
5102.00   0.18512143
5104.00   0.17342986
5106.00   0.17164479
5108.00   0.16154377
5110.00   0.15608869
5112.00   0.14656223
5114.00   0.16114923
5116.00   0.16920932
5118.00   0.14219101
5120.00   0.16128302
5122.00   0.16953269
5124.00   0.15221108
5126.00   0.14782073
5128.00   0.14972685
5130.00   0.14827754
5132.00   0.17455661
5134.00   0.16658998
5136.00   0.16824484
5138.00   0.14646229
5140.00   0.14364929
5142.00   0.15098897
5144.00   0.13117677
5146.00   0.14035361
5148.00   0.17056319
5150.00   0.14194113
5152.00   0.14707173
5154.00   0.13623413
5156.00   0.14667620
5158.00   0.16121879
5160.00   0.14966699
5162.00   0.13665417
5164.00   0.15213627
5166.00   0.13804407
5168.00   0.12892534
5170.00   0.13068092
5172.00   0.14451823
5174.00   0.14349031
5176.00   0.14545508
5178.00   0.14828588
5180.00   0.11776518
5182.00   0.13703206
5184.00   0.14428218
5186.00   0.11956952
5188.00   0.13037440
5190.00   0.15280527
5192.00   0.13146172
5194.00   0.09981391
5196.00   0.13851069
5198.00   0.13147666
5200.00   0.14152561
5202.00   0.13233674
5204.00   0.16035062
5206.00   0.15250792
5208.00   0.13907297
5210.00   0.14783669
5212.00   0.14448796
5214.00   0.12876613
5216.00   0.13007149
5218.00   0.14361310
5220.00   0.13838287
5222.00   0.15041651
5224.00   0.11340155
5226.00   0.12876008
5228.00   0.16972186
5230.00   0.13343340
5232.00   0.14194413
5234.00   0.15785509
5236.00   0.13770773
5238.00   0.14202975
5240.00   0.13473697
5242.00   0.14180280
5244.00   0.14889704
5246.00   0.14840373
5248.00   0.17014246
5250.00   0.16675295
5252.00   0.14798808
5254.00   0.14769177
5256.00   0.16869886
5258.00   0.18526149
5260.00   0.17560513
5262.00   0.13574788
5264.00   0.15667079
5266.00   0.18804517
5268.00   0.16163434
5270.00   0.16404290
5272.00   0.16569196
5274.00   0.18295591
5276.00   0.16421776
5278.00   0.18097278
5280.00   0.17993762
5282.00   0.19598809
5284.00   0.17775245
5286.00   0.19328488
5288.00   0.20777674
5290.00   0.19085509
5292.00   0.20711973
5294.00   0.22653033
5296.00   0.19649327
5298.00   0.21126175
5300.00   0.22531959
5302.00   0.23481782
5304.00   0.23260425
5306.00   0.22656398
5308.00   0.22651766
5310.00   0.24204747
5312.00   0.23105934
5314.00   0.25106001
5316.00   0.27267069
5318.00   0.25535041
5320.00   0.25734150
5322.00   0.26845255
5324.00   0.27800977
5326.00   0.25283140
5328.00   0.26413018
5330.00   0.26944157
