# File created by shivutils (I.Shivvers)
# wl(A)   flm    er(optional)
3442.00   2.48883557   0.15352367
3444.00   2.17096639   0.15188773
3446.00   2.44967437   0.15687385
3448.00   2.41134191   0.15668559
3450.00   2.28638148   0.16095079
3452.00   2.50937533   0.16590923
3454.00   2.22360277   0.16200788
3456.00   2.22487974   0.16000170
3458.00   2.24894786   0.16205241
3460.00   2.40841341   0.16035941
3462.00   2.38411164   0.16181463
3464.00   2.17568350   0.15922196
3466.00   2.63272977   0.16320780
3468.00   2.35012603   0.16047576
3470.00   2.42720675   0.16074558
3472.00   1.98966813   0.15474604
3474.00   2.28250337   0.15761691
3476.00   2.44376135   0.16369273
3478.00   2.62002707   0.17200395
3480.00   2.44651699   0.17585836
3482.00   2.28028560   0.17355795
3484.00   2.67591548   0.17420880
3486.00   2.66561985   0.17650050
3488.00   2.92087245   0.17479250
3490.00   2.14421201   0.16360946
3492.00   2.63288093   0.16763331
3494.00   2.58654308   0.16600583
3496.00   2.76675391   0.16763659
3498.00   2.92891717   0.17048052
3500.00   2.67958307   0.16675259
3502.00   2.64606404   0.16342652
3504.00   2.34970737   0.16126780
3506.00   2.86255646   0.16751698
3508.00   2.85207176   0.16683123
3510.00   2.61248994   0.16434041
3512.00   2.46120501   0.16180012
3514.00   2.90237951   0.16388978
3516.00   2.89875650   0.16806498
3518.00   3.02727985   0.16910392
3520.00   2.85259104   0.16542734
3522.00   3.07368016   0.16570346
3524.00   2.84269691   0.16261545
3526.00   2.87724757   0.16233613
3528.00   2.63943291   0.15915599
3530.00   2.79254317   0.16044380
3532.00   2.83489084   0.16218476
3534.00   3.10545397   0.16439573
3536.00   3.10719705   0.16285430
3538.00   2.83671999   0.16205353
3540.00   2.87329745   0.16444300
3542.00   2.82839918   0.17020258
3544.00   2.89466381   0.17226095
3546.00   3.02376914   0.17092456
3548.00   3.21611905   0.17182191
3550.00   2.94276118   0.16598459
3552.00   3.17907858   0.17083904
3554.00   2.99143457   0.16794716
3556.00   2.92225003   0.16583931
3558.00   2.94131565   0.16523971
3560.00   2.96558619   0.16260749
3562.00   2.76169610   0.15700349
3564.00   2.98824573   0.15781596
3566.00   3.20604873   0.16101456
3568.00   3.22384953   0.15884066
3570.00   3.41510177   0.16031794
3572.00   2.94675374   0.15472540
3574.00   2.64999986   0.15270972
3576.00   2.88097835   0.15287259
3578.00   3.01209784   0.15263559
3580.00   3.24341035   0.15325834
3582.00   2.95384097   0.14741358
3584.00   3.05033231   0.14699310
3586.00   3.21972227   0.14627358
3588.00   3.30125952   0.14843720
3590.00   2.99806571   0.14743605
3592.00   3.06810665   0.14651151
3594.00   3.07722163   0.14367814
3596.00   3.13931370   0.14470582
3598.00   3.17213917   0.14360820
3600.00   3.12973642   0.14219853
3602.00   2.93598890   0.13924447
3604.00   2.93115878   0.13752116
3606.00   3.01951003   0.13586350
3608.00   3.22350526   0.13796279
3610.00   3.11816239   0.13821721
3612.00   3.13852429   0.14203420
3614.00   3.26105690   0.14663455
3616.00   3.15687609   0.14415638
3618.00   2.99858785   0.13758208
3620.00   3.25612330   0.13874091
3622.00   3.22190285   0.13694485
3624.00   2.99352884   0.13546871
3626.00   3.25581932   0.13618164
3628.00   3.13400841   0.13641687
3630.00   3.80076051   0.14641424
3632.00   3.14018440   0.13931054
3634.00   3.12727427   0.13675660
3636.00   3.24702501   0.13682128
3638.00   3.19598079   0.13562810
3640.00   3.18117476   0.13733180
3642.00   3.26889825   0.14161116
3644.00   3.03061008   0.14161368
3646.00   2.87227821   0.14276779
3648.00   2.93242049   0.17743002
3650.00   3.69285893   0.20341925
3652.00   3.15187693   0.18652759
3654.00   3.08684230   0.16793519
3656.00   2.96748114   0.15603460
3658.00   3.10135961   0.13654239
3660.00   3.14238167   0.13967031
3662.00   2.97646594   0.15069285
3664.00   2.96851563   0.14725275
3666.00   3.16041064   0.13017249
3668.00   3.11932921   0.12159958
3670.00   2.90723276   0.11793706
3672.00   2.81853986   0.11590972
3674.00   2.81002188   0.11412361
3676.00   3.03830743   0.11513373
3678.00   2.83571863   0.11247932
3680.00   2.77619672   0.11133418
3682.00   2.63168502   0.10869295
3684.00   2.66531944   0.10697568
3686.00   2.85210037   0.10838602
3688.00   2.74072719   0.10678437
3690.00   2.48844337   0.10585287
3692.00   2.85397053   0.10893708
3694.00   2.90624285   0.10893933
3696.00   2.93246865   0.10946583
3698.00   2.74425983   0.10907102
3700.00   2.66397572   0.10805525
3702.00   2.82463837   0.10995248
3704.00   2.81971645   0.10889033
3706.00   2.73104215   0.10707869
3708.00   2.74287915   0.10534572
3710.00   2.48758149   0.10318552
3712.00   2.52607274   0.10301882
3714.00   2.31491399   0.10024651
3716.00   2.57513523   0.10167411
3718.00   2.54107809   0.10148969
3720.00   2.46256351   0.10104482
3722.00   2.30944133   0.09702551
3724.00   2.43237519   0.09860870
3726.00   2.39362574   0.09890098
3728.00   1.94796956   0.09442367
3730.00   2.33410621   0.09817482
3732.00   2.20299768   0.09799460
3734.00   2.15237236   0.09670255
3736.00   2.18010283   0.09709416
3738.00   2.31858563   0.09933481
3740.00   2.00041246   0.09731173
3742.00   1.96194422   0.09641724
3744.00   1.93476415   0.09322293
3746.00   2.02714014   0.09200975
3748.00   1.95774913   0.08957943
3750.00   1.93678534   0.08938294
3752.00   1.81416011   0.08922324
3754.00   1.94494915   0.09011443
3756.00   2.01721859   0.09017815
3758.00   1.89486766   0.08846849
3760.00   1.61453545   0.08508176
3762.00   1.71754110   0.08570030
3764.00   1.85800624   0.08487280
3766.00   1.63732481   0.08157582
3768.00   1.71682632   0.08190182
3770.00   1.50352383   0.08249627
3772.00   1.73045766   0.08439070
3774.00   1.75421751   0.08384054
3776.00   1.88815272   0.08506679
3778.00   1.59180307   0.08090284
3780.00   1.72546422   0.08166694
3782.00   1.50592232   0.07927965
3784.00   1.67157543   0.08202062
3786.00   1.74170172   0.08067629
3788.00   1.55928564   0.07850046
3790.00   1.52738643   0.08042000
3792.00   1.39330435   0.07900120
3794.00   1.56247175   0.07927882
3796.00   1.42764616   0.07648483
3798.00   1.32789052   0.07599481
3800.00   1.58581853   0.07786921
3802.00   1.57865798   0.07847004
3804.00   1.67858171   0.07900015
3806.00   1.68589962   0.07699976
3808.00   1.60214269   0.07525032
3810.00   1.90450191   0.07904171
3812.00   2.87707543   0.08849849
3814.00   3.64790845   0.09637937
3816.00   3.34157038   0.09309733
3818.00   2.10887861   0.08133423
3820.00   1.74391365   0.07723266
3822.00   1.63480616   0.07614736
3824.00   1.57578909   0.07505275
3826.00   1.58712983   0.07538299
3828.00   1.83819652   0.08103641
3830.00   1.71878242   0.08064231
3832.00   1.86343348   0.07998060
3834.00   1.78204405   0.07811941
3836.00   1.66715121   0.07696336
3838.00   1.75291741   0.07657188
3840.00   1.80426359   0.07726898
3842.00   1.88109875   0.07734250
3844.00   1.90464973   0.07678172
3846.00   1.79938233   0.07487771
3848.00   1.83738279   0.07426552
3850.00   1.98818481   0.07470677
3852.00   1.81751728   0.07234763
3854.00   1.90162563   0.07384988
3856.00   1.64553404   0.07021032
3858.00   1.74730194   0.07077765
3860.00   1.76672697   0.07052463
3862.00   1.79316878   0.07177210
3864.00   1.93311679   0.07304429
3866.00   1.84870136   0.07048274
3868.00   2.03027678   0.07168108
3870.00   2.11586642   0.07170072
3872.00   1.91578865   0.07189354
3874.00   2.15037894   0.07588010
3876.00   1.87289965   0.07243856
3878.00   1.87707782   0.06998777
3880.00   1.93888319   0.06960928
3882.00   1.86179924   0.06803103
3884.00   1.95527184   0.06892586
3886.00   1.80591166   0.06697879
3888.00   1.88256061   0.06719492
3890.00   1.88692057   0.06734993
3892.00   2.12125373   0.06986331
3894.00   2.09141517   0.07024339
3896.00   1.93450224   0.06938017
3898.00   2.28509712   0.07191257
3900.00   2.28949523   0.07241047
3902.00   2.24340296   0.07246403
3904.00   2.30351186   0.07614402
3906.00   2.33101130   0.08293966
3908.00   2.26264405   0.08537541
3910.00   2.27972794   0.08623518
3912.00   2.30904269   0.08569485
3914.00   2.27900100   0.08177909
3916.00   2.34553361   0.07698078
3918.00   2.18635058   0.07370370
3920.00   2.41641808   0.07400822
3922.00   2.44212604   0.07218680
3924.00   2.34749842   0.07152506
3926.00   2.49038458   0.07199740
3928.00   2.40722942   0.07017306
3930.00   2.57314777   0.07196061
3932.00   2.68606901   0.07530965
3934.00   2.69702029   0.07513192
3936.00   2.77972317   0.07315747
3938.00   2.96823263   0.07403307
3940.00   3.07362366   0.07547496
3942.00   2.80057788   0.07737621
3944.00   3.07221580   0.07992955
3946.00   3.19636536   0.07952740
3948.00   3.06966352   0.07605530
3950.00   3.23429441   0.07609302
3952.00   3.33616710   0.07600114
3954.00   3.27177358   0.07517778
3956.00   3.29158473   0.07514345
3958.00   3.35713840   0.07666358
3960.00   3.24265289   0.07854269
3962.00   3.29802799   0.07866579
3964.00   3.32570362   0.07543304
3966.00   3.27844214   0.07380640
3968.00   3.29903316   0.07354525
3970.00   3.20447230   0.07224178
3972.00   3.44874716   0.07437812
3974.00   3.24917126   0.07337280
3976.00   3.30870461   0.07352301
3978.00   3.19152689   0.07563303
3980.00   3.52372575   0.07820643
3982.00   3.48020124   0.07480935
3984.00   3.42360997   0.07413994
3986.00   3.51804233   0.07451364
3988.00   3.51682281   0.07491508
3990.00   3.56939149   0.07613808
3992.00   3.50811458   0.07488401
3994.00   3.52248192   0.07703892
3996.00   3.67562079   0.07984371
3998.00   3.73693085   0.07920542
4000.00   3.68883371   0.07656409
4002.00   3.81650925   0.07620377
4004.00   3.88657641   0.07639078
4006.00   3.77849388   0.07666007
4008.00   3.77628779   0.07716076
4010.00   3.85799527   0.07817208
4012.00   3.94808435   0.07867898
4014.00   3.98833275   0.07853328
4016.00   3.93309116   0.07818687
4018.00   3.87690544   0.08220303
4020.00   3.96674132   0.08773124
4022.00   3.79228544   0.08851320
4024.00   3.70020509   0.08691151
4026.00   3.37083769   0.08037445
4028.00   3.50388455   0.07795418
4030.00   3.73848629   0.07892323
4032.00   3.84748960   0.07880286
4034.00   3.73920751   0.07709374
4036.00   3.66745996   0.07641872
4038.00   3.64140248   0.07576428
4040.00   3.66936898   0.07579609
4042.00   3.68767643   0.07948139
4044.00   3.76252890   0.11237647
4046.00   3.78663468   0.13737851
4048.00   3.77478600   0.12508635
4050.00   3.15692663   0.08798214
4052.00   3.48185253   0.07833195
4054.00   3.42432022   0.07783236
4056.00   3.30432653   0.07565642
4058.00   3.22991562   0.07206652
4060.00   3.01886153   0.07001914
4062.00   3.11895299   0.07046267
4064.00   3.06973743   0.06914376
4066.00   3.08067870   0.06941203
4068.00   3.23124790   0.06998583
4070.00   3.41136265   0.07021014
4072.00   3.15267611   0.06801323
4074.00   3.21993613   0.07016867
4076.00   3.25718355   0.07804461
4078.00   3.31221747   0.08071767
4080.00   3.18627024   0.07662609
4082.00   3.36317730   0.07495797
4084.00   3.39989591   0.07423044
4086.00   3.32582283   0.07354882
4088.00   3.24757528   0.07010698
4090.00   3.29325390   0.06758402
4092.00   3.25388718   0.06670289
4094.00   3.25443077   0.06666863
4096.00   3.24432635   0.06612215
4098.00   3.20804930   0.06583442
4100.00   3.15818143   0.06537026
4102.00   3.39206314   0.06592809
4104.00   3.34292912   0.06517322
4106.00   3.37808490   0.06605524
4108.00   3.47640038   0.06655613
4110.00   3.52015281   0.06674006
4112.00   3.63505197   0.06728026
4114.00   3.51540017   0.06676391
4116.00   3.50271082   0.06652317
4118.00   3.45153236   0.06544586
4120.00   3.61321068   0.06558041
4122.00   3.67744207   0.06642973
4124.00   3.55330896   0.06586386
4126.00   3.57052302   0.06628025
4128.00   3.71907973   0.06748452
4130.00   3.71155643   0.06797939
4132.00   3.75248551   0.06980438
4134.00   3.76339293   0.06954482
4136.00   3.76743007   0.06815313
4138.00   3.71872544   0.06868605
4140.00   3.68781114   0.06936262
4142.00   3.83778691   0.06823815
4144.00   3.80898714   0.06672458
4146.00   3.92299819   0.06719901
4148.00   3.85034442   0.06689198
4150.00   3.95127988   0.06904151
4152.00   3.93593025   0.07034204
4154.00   3.82815409   0.06896152
4156.00   3.94615340   0.06781192
4158.00   3.80339980   0.06640643
4160.00   3.73777699   0.06628909
4162.00   3.83647418   0.06859541
4164.00   3.95668149   0.07196855
4166.00   3.83824539   0.07152681
4168.00   3.86245918   0.06831940
4170.00   3.85469460   0.06656220
4172.00   3.83479190   0.06579328
4174.00   3.74461484   0.06456690
4176.00   3.87472701   0.06541926
4178.00   3.88826799   0.06578634
4180.00   3.79360652   0.06493356
4182.00   3.86220074   0.06441264
4184.00   3.90107632   0.06438237
4186.00   3.75369883   0.06371771
4188.00   3.77865028   0.06347511
4190.00   3.66439986   0.06285437
4192.00   3.57058716   0.06243230
4194.00   3.60193396   0.06233341
4196.00   3.49570060   0.06133788
4198.00   3.61619353   0.06160875
4200.00   3.54772639   0.06109325
4202.00   3.55963135   0.06117729
4204.00   3.48484492   0.06115493
4206.00   3.58024549   0.06206528
4208.00   3.62192535   0.06285906
4210.00   3.50702667   0.06280937
4212.00   3.64512706   0.06297407
4214.00   3.49595022   0.06152364
4216.00   3.33698940   0.06062895
4218.00   3.48574829   0.06136392
4220.00   3.58797431   0.06187918
4222.00   3.37916827   0.06059590
4224.00   3.39956832   0.06033548
4226.00   3.46933913   0.06067041
4228.00   3.40462089   0.06038875
4230.00   3.46108007   0.06126278
4232.00   3.36666822   0.06145900
4234.00   3.36735868   0.06154360
4236.00   3.37785077   0.06213802
4238.00   3.24889898   0.06148886
4240.00   3.34423804   0.06063798
4242.00   3.37723041   0.06014341
4244.00   3.46961594   0.06414676
4246.00   3.42377329   0.06792109
4248.00   3.24028063   0.06617046
4250.00   3.25000286   0.06145164
4252.00   3.20697570   0.05913366
4254.00   3.26016831   0.05943795
4256.00   3.21751595   0.05937642
4258.00   3.34876776   0.06070470
4260.00   3.28684402   0.05995478
4262.00   3.27588677   0.05895644
4264.00   3.20914650   0.05804382
4266.00   3.21159697   0.05823519
4268.00   3.30269742   0.05857540
4270.00   3.17478013   0.05830661
4272.00   3.11019516   0.05791952
4274.00   3.30646324   0.05904040
4276.00   3.23011565   0.05879119
4278.00   3.16059089   0.05836852
4280.00   3.18547082   0.05890391
4282.00   3.05242991   0.05825486
4284.00   3.14166713   0.05858455
4286.00   3.16215444   0.05814016
4288.00   3.08393860   0.05745492
4290.00   2.94622326   0.05663921
4292.00   3.06554461   0.05762625
4294.00   2.97547030   0.05735054
4296.00   2.93628216   0.05725377
4298.00   2.98016191   0.05694759
4300.00   3.02599716   0.05684867
4302.00   2.96778989   0.05655287
4304.00   2.89897728   0.05662912
4306.00   2.83038259   0.05667677
4308.00   2.89696217   0.05690150
4310.00   2.78587461   0.05718869
4312.00   2.86037993   0.06061021
4314.00   2.90771246   0.06235136
4316.00   2.81642866   0.06009398
4318.00   2.77513003   0.05961687
4320.00   2.74008489   0.06037217
4322.00   2.73285294   0.06036145
4324.00   2.64419508   0.05906924
4326.00   2.70284557   0.05825569
4328.00   2.78286338   0.05738404
4330.00   2.74329901   0.05625806
4332.00   2.65555263   0.05580344
4334.00   2.58493876   0.05533196
4336.00   2.68115687   0.05671495
4338.00   2.62300730   0.05725297
4340.00   2.63376665   0.05745959
4342.00   2.53348708   0.05711816
4344.00   2.60128307   0.05877210
4346.00   2.59548330   0.06095627
4348.00   2.47592402   0.06096476
4350.00   2.65053296   0.06003264
4352.00   2.65935683   0.05933017
4354.00   2.44561625   0.06998581
4356.00   2.31452084   0.11297631
4358.00   2.73093176   0.13501103
4360.00   2.39246154   0.11702555
4362.00   2.55202127   0.08366762
4364.00   2.39357543   0.06434448
4366.00   2.45120168   0.06033350
4368.00   2.32587290   0.05868831
4370.00   2.34261298   0.05806559
4372.00   2.38458204   0.05960136
4374.00   2.36558700   0.06031461
4376.00   2.28648710   0.05872346
4378.00   2.23026609   0.05658697
4380.00   2.23142552   0.05560792
4382.00   2.36657381   0.05549887
4384.00   2.32828164   0.05476272
4386.00   2.35529828   0.05474693
4388.00   2.15120888   0.05380661
4390.00   2.23231864   0.05424545
4392.00   2.21226025   0.05399516
4394.00   2.15194607   0.05348693
4396.00   2.21963811   0.05398479
4398.00   2.24004745   0.05513616
4400.00   2.20493388   0.05601467
4402.00   2.23816895   0.05555335
4404.00   2.37841272   0.05493046
4406.00   2.27381039   0.05426551
4408.00   2.41758418   0.05484418
4410.00   2.36820960   0.05488696
4412.00   2.38961434   0.05549052
4414.00   2.38958001   0.05656595
4416.00   2.40645576   0.05648681
4418.00   2.58525944   0.05648088
4420.00   2.47071433   0.05530433
4422.00   2.50453734   0.05546452
4424.00   2.51985312   0.05528316
4426.00   2.35402465   0.05421950
4428.00   2.48743582   0.05481017
4430.00   2.50200629   0.05480420
4432.00   2.44827604   0.05458974
4434.00   2.58210969   0.05504763
4436.00   2.61982059   0.05491997
4438.00   2.44697857   0.05437148
4440.00   2.61516666   0.05506590
4442.00   2.74814773   0.05546514
4444.00   2.65680981   0.05484731
4446.00   2.43947172   0.05559525
4448.00   2.54289889   0.05466806
4450.00   2.67269468   0.05487273
4452.00   2.64332080   0.05451503
4454.00   2.69885755   0.05488760
4456.00   2.79961467   0.05517280
4458.00   2.76510811   0.05508531
4460.00   2.66276979   0.05459719
4462.00   2.74475694   0.05492831
4464.00   2.77387428   0.05519938
4466.00   2.81590986   0.05514064
4468.00   2.93938446   0.05543883
4470.00   2.89361000   0.05514340
4472.00   2.84074473   0.05483839
4474.00   2.80083060   0.05472025
4476.00   2.75382400   0.05445447
4478.00   2.82215786   0.05483574
4480.00   2.88908195   0.05501439
4482.00   2.75233650   0.05446434
4484.00   2.84817266   0.05475593
4486.00   2.72090364   0.05448736
4488.00   2.68943000   0.05403230
4490.00   2.77130723   0.05456355
4492.00   2.65071201   0.05433249
4494.00   2.67107940   0.05472034
4496.00   2.64286923   0.05449524
4498.00   2.61166477   0.05436625
4500.00   2.69407558   0.05442554
4502.00   2.63142037   0.05395924
4504.00   2.60392332   0.05354697
4506.00   2.53591156   0.05311286
4508.00   2.42394662   0.05225846
4510.00   2.48421240   0.05222123
4512.00   2.50307918   0.05243143
4514.00   2.62714243   0.05269574
4516.00   2.54853725   0.05211220
4518.00   2.43307614   0.05152975
4520.00   2.54564142   0.05184267
4522.00   2.46611643   0.05146542
4524.00   2.50544024   0.05136307
4526.00   2.40970254   0.05053571
4528.00   2.51888275   0.05100640
4530.00   2.45965791   0.05088994
4532.00   2.51460934   0.05118332
4534.00   2.55793262   0.05123108
4536.00   2.47855711   0.05060442
4538.00   2.43399525   0.05037824
4540.00   2.56514406   0.05101623
4542.00   2.64694452   0.05180499
4544.00   2.64464593   0.05198922
4546.00   2.64090157   0.05170677
4548.00   2.71860313   0.05154562
4550.00   2.67073965   0.05093348
4552.00   2.64695764   0.05060431
4554.00   2.66076040   0.05071263
4556.00   2.71231818   0.05093611
4558.00   2.78015614   0.05147073
4560.00   2.77540755   0.05097861
4562.00   2.89822412   0.05093252
4564.00   2.84147859   0.05067192
4566.00   2.81288576   0.05052393
4568.00   2.87882948   0.05059023
4570.00   2.93604827   0.05087446
4572.00   2.82975912   0.05071052
4574.00   2.89995813   0.05120034
4576.00   2.94858885   0.05105311
4578.00   2.84451580   0.05135645
4580.00   3.02885413   0.05129353
4582.00   2.88680696   0.04987337
4584.00   2.85604596   0.04930791
4586.00   2.91461849   0.04965207
4588.00   2.95954490   0.04988028
4590.00   3.06207252   0.05050050
4592.00   3.06359935   0.05047894
4594.00   2.97279334   0.05021805
4596.00   3.04565763   0.05032426
4598.00   3.01508427   0.04978748
4600.00   3.05854273   0.04972075
4602.00   3.08032274   0.04978681
4604.00   3.09008145   0.04970979
4606.00   3.05435562   0.04979299
4608.00   3.29816818   0.05109363
4610.00   3.05709553   0.04977089
4612.00   3.04896927   0.04970858
