# File created by shivutils (I.Shivvers)
# wl(A)   flm    er(optional)
3438.00   0.75988099   0.07783416
3440.00   0.75701360   0.07880215
3442.00   0.54963325   0.07795871
3444.00   0.82926430   0.08074599
3446.00   0.71015453   0.08280045
3448.00   0.85863008   0.08719706
3450.00   0.76854536   0.08825990
3452.00   0.78931159   0.09073964
3454.00   0.62004072   0.08926643
3456.00   0.80417134   0.09112947
3458.00   0.97443195   0.09226231
3460.00   1.02911551   0.09290998
3462.00   0.99017671   0.09253842
3464.00   1.12858765   0.09304195
3466.00   1.00218425   0.09351873
3468.00   0.62763172   0.09068909
3470.00   0.69939076   0.09143817
3472.00   0.82209267   0.09170956
3474.00   0.78452050   0.09099582
3476.00   0.78297266   0.09144479
3478.00   0.89492747   0.09643902
3480.00   0.79231833   0.10013692
3482.00   0.57294773   0.09682506
3484.00   0.59519033   0.09682463
3486.00   0.82302219   0.09598971
3488.00   0.79634293   0.09474805
3490.00   0.77756541   0.09462527
3492.00   0.55025819   0.09166799
3494.00   0.78386212   0.09184542
3496.00   0.71073199   0.09048856
3498.00   0.84697146   0.09352316
3500.00   0.80329011   0.09002351
3502.00   0.60903484   0.08960038
3504.00   0.69174462   0.08986919
3506.00   0.95166027   0.09218082
3508.00   0.70962672   0.09138282
3510.00   0.53257370   0.08968637
3512.00   0.60780819   0.08883121
3514.00   0.78657856   0.08946668
3516.00   0.72747978   0.08870718
3518.00   0.59338193   0.08719186
3520.00   0.82226393   0.08891515
3522.00   0.84678254   0.08786218
3524.00   0.59007447   0.08376804
3526.00   0.62094160   0.08461016
3528.00   0.80216619   0.08624652
3530.00   0.83921555   0.08608086
3532.00   0.69204973   0.08535167
3534.00   0.68189176   0.08534059
3536.00   0.82669910   0.08659144
3538.00   0.78095992   0.08670322
3540.00   0.85751495   0.08880264
3542.00   0.92256672   0.09346023
3544.00   0.66060874   0.09086445
3546.00   0.90568938   0.09053765
3548.00   0.63882402   0.08733140
3550.00   0.66878257   0.08692461
3552.00   0.67264846   0.08728996
3554.00   0.81441598   0.08935907
3556.00   0.86432115   0.08958132
3558.00   1.09718460   0.09107397
3560.00   0.62292398   0.08570622
3562.00   0.79002637   0.08499764
3564.00   0.65100951   0.08266246
3566.00   0.79875152   0.08383161
3568.00   0.84344898   0.08383839
3570.00   0.80038572   0.08280460
3572.00   0.71953655   0.08275057
3574.00   0.70488410   0.08162238
3576.00   0.89954448   0.08106981
3578.00   0.79373767   0.08019432
3580.00   0.75414127   0.07944197
3582.00   0.80964022   0.07895678
3584.00   0.75632122   0.07608308
3586.00   0.71226412   0.07520255
3588.00   0.71298812   0.07605253
3590.00   0.76198902   0.07818965
3592.00   0.69618146   0.07667085
3594.00   0.75726697   0.07592005
3596.00   0.88361974   0.07639088
3598.00   0.69516334   0.07422488
3600.00   0.83709917   0.07557333
3602.00   0.90676885   0.07536771
3604.00   0.54225815   0.07075437
3606.00   0.78132505   0.07334309
3608.00   0.82951540   0.07340813
3610.00   0.97380094   0.07412127
3612.00   0.83080779   0.07472879
3614.00   0.76946104   0.07572893
3616.00   0.92843795   0.07543519
3618.00   0.78875403   0.07246213
3620.00   0.80110209   0.07114040
3622.00   0.70786781   0.07035246
3624.00   0.69438510   0.07130424
3626.00   0.86357004   0.07126775
3628.00   0.81283742   0.07168821
3630.00   0.93251857   0.07310641
3632.00   0.78467203   0.07229286
3634.00   0.96956061   0.07247557
3636.00   0.87374530   0.07159226
3638.00   0.69452233   0.06951358
3640.00   0.82922390   0.07090372
3642.00   0.97234324   0.07378215
3644.00   0.89694389   0.07331742
3646.00   0.82588200   0.07484981
3648.00   0.86564183   0.08973666
3650.00   0.72920171   0.09942890
3652.00   0.73060440   0.09314228
3654.00   0.73647529   0.08519612
3656.00   0.93978620   0.08024052
3658.00   0.93205390   0.07130500
3660.00   0.92623915   0.07022864
3662.00   1.17686273   0.07923328
3664.00   1.04199972   0.07702341
3666.00   0.88229069   0.06681377
3668.00   0.89310034   0.06325362
3670.00   0.91385986   0.06181430
3672.00   0.88252098   0.06122877
3674.00   1.05770760   0.06178048
3676.00   0.86240685   0.05973293
3678.00   0.87564946   0.05892101
3680.00   0.90312388   0.05937565
3682.00   0.86651901   0.05858623
3684.00   1.02647171   0.05912595
3686.00   0.92452648   0.05768641
3688.00   1.07415046   0.05811684
3690.00   1.03765256   0.05811330
3692.00   1.01772233   0.05831038
3694.00   0.97819484   0.05690630
3696.00   0.98395072   0.05747336
3698.00   0.91953088   0.05696410
3700.00   0.87771784   0.05651721
3702.00   0.79174846   0.05629644
3704.00   0.87508996   0.05633080
3706.00   0.79029798   0.05487306
3708.00   0.80520694   0.05552097
3710.00   0.85427013   0.05472953
3712.00   0.75723315   0.05345319
3714.00   0.69490047   0.05381436
3716.00   0.81192716   0.05331021
3718.00   0.75759241   0.05260139
3720.00   0.77557314   0.05223915
3722.00   0.80403204   0.05181949
3724.00   0.75811742   0.05322380
3726.00   0.73990291   0.05511373
3728.00   0.64771015   0.05596197
3730.00   0.74441617   0.05428995
3732.00   0.70568184   0.05167203
3734.00   0.51571340   0.04990102
3736.00   0.70906223   0.05032211
3738.00   0.69682353   0.05088606
3740.00   0.65550605   0.05043447
3742.00   0.60531480   0.05009749
3744.00   0.65937371   0.04942044
3746.00   0.58545726   0.04757406
3748.00   0.61226888   0.04772824
3750.00   0.68257550   0.04780626
3752.00   0.55039503   0.04685959
3754.00   0.52168226   0.04674147
3756.00   0.49955534   0.04576447
3758.00   0.52032335   0.04569253
3760.00   0.52237108   0.04572806
3762.00   0.58861024   0.04498381
3764.00   0.46635595   0.04409272
3766.00   0.41561622   0.04332507
3768.00   0.54803820   0.04375616
3770.00   0.39996588   0.04367764
3772.00   0.41546504   0.04412470
3774.00   0.53195408   0.04419578
3776.00   0.49915563   0.04426404
3778.00   0.39432018   0.04267978
3780.00   0.38744153   0.04299535
3782.00   0.41924856   0.04336973
3784.00   0.36007066   0.04153874
3786.00   0.42519257   0.04226885
3788.00   0.32281783   0.04126643
3790.00   0.47844172   0.04365231
3792.00   0.37756542   0.04184025
3794.00   0.39814088   0.04198235
3796.00   0.28606192   0.03979367
3798.00   0.42466338   0.04077728
3800.00   0.33310855   0.04050054
3802.00   0.31650262   0.04086411
3804.00   0.30316014   0.04068974
3806.00   0.38384548   0.04050677
3808.00   0.37230652   0.03930862
3810.00   0.28465481   0.03943025
3812.00   0.30541211   0.03931832
3814.00   0.27655248   0.03899497
3816.00   0.34735601   0.04003056
3818.00   0.36175611   0.03925538
3820.00   0.30025055   0.03935434
3822.00   0.29953421   0.03872945
3824.00   0.32306293   0.03855313
3826.00   0.21634262   0.03826124
3828.00   0.27725880   0.04003760
3830.00   0.30447670   0.04059224
3832.00   0.33774502   0.03978764
3834.00   0.43624644   0.04081145
3836.00   0.35850161   0.03983171
3838.00   0.28301671   0.03940026
3840.00   0.24449578   0.03891904
3842.00   0.29124476   0.03920123
3844.00   0.34610682   0.03939556
3846.00   0.36734712   0.03911745
3848.00   0.40632153   0.03849775
3850.00   0.36407220   0.03806284
3852.00   0.30953611   0.03763386
3854.00   0.37397121   0.03727973
3856.00   0.41471602   0.03763392
3858.00   0.49100010   0.03768039
3860.00   0.53531541   0.03802768
3862.00   0.44810169   0.03778164
3864.00   0.46238603   0.03841902
3866.00   0.46889097   0.03765858
3868.00   0.43710307   0.03732222
3870.00   0.48954673   0.03769131
3872.00   0.41648955   0.03786253
3874.00   0.42098670   0.03844253
3876.00   0.37733381   0.03777020
3878.00   0.45798278   0.03726347
3880.00   0.46780379   0.03667146
3882.00   0.40380239   0.03561552
3884.00   0.41427602   0.03628080
3886.00   0.46723073   0.03690066
3888.00   0.49595207   0.03728194
3890.00   0.38379270   0.03603935
3892.00   0.27005409   0.03530271
3894.00   0.37025710   0.03667435
3896.00   0.39528421   0.03713640
3898.00   0.36586327   0.03697323
3900.00   0.37048736   0.03680566
3902.00   0.42463556   0.03749668
3904.00   0.43285425   0.03873455
3906.00   0.53392531   0.04269991
3908.00   0.46566525   0.04503212
3910.00   0.41120677   0.04475414
3912.00   0.52425503   0.04462294
3914.00   0.43112831   0.04208296
3916.00   0.39769094   0.03907624
3918.00   0.43491996   0.03767740
3920.00   0.36864333   0.03621970
3922.00   0.39364391   0.03624004
3924.00   0.41003441   0.03577050
3926.00   0.44728463   0.03526141
3928.00   0.36211135   0.03452225
3930.00   0.46991621   0.03522434
3932.00   0.42448198   0.03617087
3934.00   0.46267420   0.03592447
3936.00   0.44394400   0.03465254
3938.00   0.54436114   0.03514597
3940.00   0.51651438   0.03583371
3942.00   0.61392003   0.03759104
3944.00   0.56381161   0.03890648
3946.00   0.63548715   0.03814254
3948.00   0.57980875   0.03666118
3950.00   0.57417142   0.03584276
3952.00   0.68190066   0.03657132
3954.00   0.63787435   0.03620898
3956.00   0.61081102   0.03567453
3958.00   0.62430431   0.03602096
3960.00   0.69032580   0.03805583
3962.00   0.75841931   0.03896739
3964.00   0.71387069   0.03683633
3966.00   0.75921687   0.03610612
3968.00   0.76282159   0.03606560
3970.00   0.80078159   0.03640210
3972.00   0.73981682   0.03657110
3974.00   0.76780147   0.03668659
3976.00   0.88976723   0.03753789
3978.00   0.87509148   0.03691620
3980.00   0.90130333   0.03739086
3982.00   0.93900591   0.03771741
3984.00   0.87572814   0.03746563
3986.00   0.84096300   0.03679090
3988.00   0.91087090   0.03740602
3990.00   0.94586603   0.03732065
3992.00   0.97419005   0.03789199
3994.00   1.02998359   0.03897953
3996.00   1.01813301   0.04019064
3998.00   0.93207717   0.03920375
4000.00   0.96261320   0.03791147
4002.00   1.03798478   0.03806025
4004.00   1.08791669   0.03798086
4006.00   1.00849379   0.03780307
4008.00   1.04658125   0.03865361
4010.00   1.04785725   0.03874324
4012.00   1.07322544   0.03894836
4014.00   1.03800377   0.03830005
4016.00   1.03513850   0.03843939
4018.00   1.07198205   0.04100154
4020.00   1.00708250   0.04392514
4022.00   1.16164381   0.04592709
4024.00   1.13511849   0.04446113
4026.00   1.07527290   0.04184262
4028.00   1.02516826   0.03976737
4030.00   1.13409313   0.04033861
4032.00   1.17841411   0.03996581
4034.00   1.11634180   0.03919517
4036.00   1.09373646   0.03903194
4038.00   1.12967307   0.03887977
4040.00   1.13037256   0.03892507
4042.00   1.04959231   0.03962484
4044.00   1.08204818   0.05528380
4046.00   1.16648489   0.06926712
4048.00   1.30818043   0.06503848
4050.00   1.17869441   0.04712923
4052.00   1.09510246   0.04034447
4054.00   1.09000711   0.03981442
4056.00   1.00190514   0.03863770
4058.00   1.11623465   0.03817663
4060.00   1.10703412   0.03749109
4062.00   1.08776162   0.03703866
4064.00   1.08751563   0.03689711
4066.00   1.02801688   0.03669629
4068.00   1.03898751   0.03660877
4070.00   1.01877253   0.03638541
4072.00   1.00484313   0.03540935
4074.00   0.97076639   0.03598804
4076.00   0.99128058   0.03954548
4078.00   0.99264469   0.04105103
4080.00   0.85770168   0.03916559
4082.00   0.95206120   0.03796949
4084.00   0.89713414   0.03690737
4086.00   0.91522377   0.03608537
4088.00   0.86743386   0.03465825
4090.00   0.82494530   0.03248770
4092.00   0.80519898   0.03213500
4094.00   0.88947097   0.03288076
4096.00   0.77353786   0.03229701
4098.00   0.73458293   0.03178443
4100.00   0.76020756   0.03225930
4102.00   0.76639565   0.03199545
4104.00   0.72496737   0.03115245
4106.00   0.68176787   0.03079615
4108.00   0.70921204   0.03110544
4110.00   0.70230726   0.03108077
4112.00   0.77740061   0.03139497
4114.00   0.66882755   0.03058738
4116.00   0.72857191   0.03098856
4118.00   0.76695119   0.03096533
4120.00   0.72326805   0.03033807
4122.00   0.76734041   0.03061835
4124.00   0.67858219   0.03029217
4126.00   0.75120351   0.03052077
4128.00   0.66306926   0.03040183
4130.00   0.70021430   0.03118394
4132.00   0.72902585   0.03209628
4134.00   0.72908326   0.03201767
4136.00   0.73051847   0.03121438
4138.00   0.76863435   0.03188402
4140.00   0.76600017   0.03233885
4142.00   0.74761159   0.03139954
4144.00   0.72490232   0.03027035
4146.00   0.78201759   0.03045700
4148.00   0.75265852   0.03024223
4150.00   0.79756280   0.03161696
4152.00   0.81923800   0.03254062
4154.00   0.85338843   0.03235644
4156.00   0.80412381   0.03146308
4158.00   0.84875439   0.03138070
4160.00   0.88320341   0.03163307
4162.00   0.91794266   0.03271016
4164.00   0.95011303   0.03416229
4166.00   0.93722104   0.03405968
4168.00   0.89988104   0.03257246
4170.00   0.97753991   0.03210935
4172.00   0.98478638   0.03162401
4174.00   0.86339657   0.03074643
4176.00   0.99509712   0.03174169
4178.00   0.97887928   0.03175931
4180.00   1.03793415   0.03172985
4182.00   1.04901943   0.03138827
4184.00   1.08843443   0.03122098
4186.00   1.02944377   0.03100962
4188.00   1.00526020   0.03093837
4190.00   0.99423010   0.03079390
4192.00   1.02619564   0.03124148
4194.00   1.07859029   0.03142387
4196.00   1.09542645   0.03092364
4198.00   0.95863095   0.03010016
4200.00   1.11278660   0.03101879
4202.00   1.09335324   0.03087854
4204.00   1.06694961   0.03106407
4206.00   0.96104034   0.03080793
4208.00   1.04754627   0.03140660
4210.00   1.09817303   0.03215779
4212.00   1.05567426   0.03150137
4214.00   1.09012865   0.03126695
4216.00   1.04947324   0.03127689
4218.00   0.99410814   0.03085591
4220.00   1.08377592   0.03109803
4222.00   1.02491421   0.03055262
4224.00   1.09239530   0.03056321
4226.00   1.13862628   0.03091586
4228.00   1.12460522   0.03095119
4230.00   1.15782680   0.03122990
4232.00   1.04301198   0.03149951
4234.00   1.08740714   0.03164399
4236.00   1.06451915   0.03157650
4238.00   1.02710005   0.03162968
4240.00   1.00820880   0.03093577
4242.00   0.96474785   0.03015305
4244.00   1.03881713   0.03248460
4246.00   0.97410640   0.03439792
4248.00   1.03027837   0.03417148
4250.00   0.99155775   0.03170352
4252.00   1.00640035   0.03063101
4254.00   1.02302040   0.03028803
4256.00   1.01050842   0.03046313
4258.00   0.97806777   0.03015572
4260.00   0.97852499   0.02980185
4262.00   0.98773812   0.02979630
4264.00   0.95928620   0.02936983
4266.00   1.02061295   0.02968131
4268.00   0.93186995   0.02924328
4270.00   0.89965096   0.02907007
4272.00   0.94216215   0.02912022
4274.00   0.95590171   0.02952476
4276.00   0.94358058   0.02940655
4278.00   0.98861843   0.02948434
4280.00   0.87684700   0.02925500
4282.00   0.93260029   0.02932217
4284.00   0.95466283   0.02966839
4286.00   0.86160959   0.02893486
4288.00   0.89291786   0.02858235
4290.00   0.90254783   0.02858359
4292.00   0.88915213   0.02877270
4294.00   0.93068224   0.02916122
4296.00   0.91666289   0.02889248
4298.00   0.93460723   0.02877745
4300.00   0.94525438   0.02867866
4302.00   0.85898746   0.02813650
4304.00   0.84625937   0.02844385
4306.00   0.86739413   0.02846761
4308.00   0.82595397   0.02832396
4310.00   0.87783488   0.02885790
4312.00   0.79760116   0.02991330
4314.00   0.84255903   0.03118280
4316.00   0.92093597   0.03081932
4318.00   0.83328534   0.03003473
4320.00   0.78382136   0.03010331
4322.00   0.79774935   0.03048655
4324.00   0.80840310   0.02980069
4326.00   0.81485733   0.02939444
4328.00   0.78004111   0.02849820
4330.00   0.76612774   0.02785716
4332.00   0.78303148   0.02777145
4334.00   0.81434764   0.02813969
4336.00   0.77320244   0.02848816
4338.00   0.74120731   0.02892525
4340.00   0.79657515   0.02973232
4342.00   0.66889632   0.02891632
4344.00   0.73627016   0.02966972
4346.00   0.65261269   0.03000051
4348.00   0.66273274   0.03048776
4350.00   0.68447058   0.02974178
4352.00   0.65374146   0.02914327
4354.00   0.67178675   0.03321993
4356.00   0.71311493   0.05358113
4358.00   0.81565059   0.06574065
4360.00   0.71596091   0.05906138
4362.00   0.61260595   0.04220152
4364.00   0.67471246   0.03239303
4366.00   0.61215848   0.02992236
4368.00   0.65409861   0.02939902
4370.00   0.69981670   0.02936627
4372.00   0.55060053   0.02934168
4374.00   0.63781967   0.03017294
4376.00   0.60120300   0.02949208
4378.00   0.63578702   0.02921942
4380.00   0.62710207   0.02779423
4382.00   0.65049570   0.02759668
4384.00   0.62899397   0.02727877
4386.00   0.58380185   0.02700101
4388.00   0.66682345   0.02732492
4390.00   0.54039878   0.02683654
4392.00   0.58101625   0.02699811
4394.00   0.55857960   0.02675446
4396.00   0.59179065   0.02678156
4398.00   0.62175247   0.02738214
4400.00   0.55443023   0.02771091
4402.00   0.52966853   0.02727771
4404.00   0.57999406   0.02705981
4406.00   0.53823315   0.02653885
4408.00   0.50777241   0.02663858
4410.00   0.49289580   0.02657861
4412.00   0.50448565   0.02665584
4414.00   0.50655399   0.02709257
4416.00   0.41912477   0.02666247
4418.00   0.45916825   0.02640973
4420.00   0.43979201   0.02601029
4422.00   0.52101131   0.02597163
4424.00   0.42499901   0.02551517
4426.00   0.43952387   0.02557615
4428.00   0.44720999   0.02530272
4430.00   0.44639657   0.02530002
4432.00   0.53022253   0.02557247
4434.00   0.45300426   0.02515293
4436.00   0.47644100   0.02500506
4438.00   0.45488628   0.02511909
4440.00   0.53194794   0.02541102
4442.00   0.44197895   0.02504315
4444.00   0.47532295   0.02518070
4446.00   0.41246645   0.02515670
4448.00   0.37936108   0.02474777
4450.00   0.44730064   0.02487885
4452.00   0.45374672   0.02477811
4454.00   0.50467597   0.02498797
4456.00   0.55236727   0.02527172
4458.00   0.48022766   0.02476009
4460.00   0.47209476   0.02498499
4462.00   0.47144356   0.02505609
4464.00   0.48966135   0.02495346
4466.00   0.43912391   0.02462514
4468.00   0.50963881   0.02488464
4470.00   0.51739288   0.02471316
4472.00   0.57438134   0.02495934
4474.00   0.55262888   0.02495776
4476.00   0.60972315   0.02531189
4478.00   0.52114500   0.02496539
4480.00   0.54012655   0.02494887
4482.00   0.56430459   0.02506994
4484.00   0.55974410   0.02501989
4486.00   0.56158967   0.02508333
4488.00   0.58828613   0.02535813
4490.00   0.59230191   0.02539425
4492.00   0.55860867   0.02545921
4494.00   0.61001346   0.02581908
4496.00   0.62176224   0.02589288
4498.00   0.61367220   0.02583008
4500.00   0.54162962   0.02548532
4502.00   0.60251106   0.02544600
4504.00   0.62978130   0.02542226
4506.00   0.65455732   0.02544219
4508.00   0.58620158   0.02478993
4510.00   0.66115218   0.02524950
4512.00   0.64749660   0.02500202
4514.00   0.66319796   0.02489707
4516.00   0.65475218   0.02481952
4518.00   0.60759503   0.02451509
4520.00   0.64991712   0.02469087
4522.00   0.63736006   0.02461522
4524.00   0.63680698   0.02453820
4526.00   0.59584319   0.02412169
4528.00   0.61451715   0.02431367
4530.00   0.62385045   0.02436303
4532.00   0.61612870   0.02439542
4534.00   0.62063784   0.02420219
4536.00   0.56313733   0.02380713
4538.00   0.65316134   0.02409345
4540.00   0.59973049   0.02392705
4542.00   0.59698566   0.02424174
4544.00   0.62103615   0.02455033
4546.00   0.59030697   0.02436070
4548.00   0.55836688   0.02389549
4550.00   0.56308347   0.02351594
4552.00   0.52876384   0.02339303
4554.00   0.55440048   0.02369842
4556.00   0.54580090   0.02342105
4558.00   0.53392956   0.02351212
4560.00   0.49739625   0.02325772
4562.00   0.56259390   0.02349120
4564.00   0.55622468   0.02315336
4566.00   0.56758266   0.02321044
4568.00   0.55792212   0.02311202
4570.00   0.54092395   0.02305921
4572.00   0.57096942   0.02329706
4574.00   0.62657007   0.02371391
4576.00   0.56780494   0.02334314
4578.00   0.57458311   0.02320867
4580.00   0.60056424   0.02335276
4582.00   0.58089721   0.02300342
4584.00   0.60244615   0.02316702
4586.00   0.56506211   0.02288436
4588.00   0.61756566   0.02332510
4590.00   0.61029753   0.02321336
4592.00   0.61787257   0.02318002
4594.00   0.66880165   0.02351101
4596.00   0.64752525   0.02354465
4598.00   0.64135371   0.02334982
4600.00   0.70068464   0.02353324
4602.00   0.62946301   0.02290730
4604.00   0.69131297   0.02341065
4606.00   0.75585531   0.02380274
4608.00   0.64996865   0.02341945
