# File created by shivutils (I.Shivvers)
# wl(A)   flm    er(optional)
3420.00   0.43387243   0.04901238
3422.00   0.45890123   0.05007925
3424.00   0.48872522   0.04974393
3426.00   0.59125441   0.05100561
3428.00   0.51042742   0.05047898
3430.00   0.50158948   0.05102407
3432.00   0.46948057   0.05153581
3434.00   0.52321690   0.05162643
3436.00   0.41699877   0.04927127
3438.00   0.54285270   0.05299400
3440.00   0.58301145   0.05261515
3442.00   0.49861497   0.05158481
3444.00   0.51038349   0.05267698
3446.00   0.59891623   0.05433616
3448.00   0.58785504   0.05493673
3450.00   0.51059443   0.05416873
3452.00   0.39920196   0.05199136
3454.00   0.55639148   0.05431736
3456.00   0.55631775   0.05407850
3458.00   0.60384268   0.05331426
3460.00   0.62481368   0.05456318
3462.00   0.59663373   0.05464379
3464.00   0.51474082   0.05147763
3466.00   0.59883654   0.05392890
3468.00   0.52718413   0.05346873
3470.00   0.58421737   0.05436942
3472.00   0.56725568   0.05389885
3474.00   0.54463708   0.05466633
3476.00   0.54409879   0.05497746
3478.00   0.47420576   0.05423541
3480.00   0.57505500   0.05595016
3482.00   0.65588534   0.05709397
3484.00   0.59860015   0.05539604
3486.00   0.58032525   0.05378237
3488.00   0.61065477   0.05369971
3490.00   0.57505822   0.05347282
3492.00   0.69015288   0.05477455
3494.00   0.61848605   0.05291302
3496.00   0.58259714   0.05237193
3498.00   0.57682705   0.05199619
3500.00   0.63191366   0.05407276
3502.00   0.62330717   0.05271673
3504.00   0.54864436   0.05134707
3506.00   0.53919733   0.05232587
3508.00   0.64838225   0.05342035
3510.00   0.61682469   0.05238503
3512.00   0.61396521   0.05200743
3514.00   0.52513534   0.05022912
3516.00   0.67034310   0.05216874
3518.00   0.59485161   0.05103865
3520.00   0.64710051   0.05161244
3522.00   0.70558774   0.05242445
3524.00   0.67261946   0.05195986
3526.00   0.57184839   0.04997519
3528.00   0.69639987   0.05115289
3530.00   0.57863373   0.04953157
3532.00   0.62527573   0.04973518
3534.00   0.57169032   0.04873675
3536.00   0.68030661   0.05082746
3538.00   0.70198441   0.05168863
3540.00   0.60422170   0.05086744
3542.00   0.59865552   0.04982042
3544.00   0.73441660   0.05220860
3546.00   0.72111237   0.05050509
3548.00   0.68297523   0.05038268
3550.00   0.67236900   0.05006458
3552.00   0.64669126   0.04953291
3554.00   0.54553682   0.04793259
3556.00   0.71409899   0.05017605
3558.00   0.71834123   0.04994964
3560.00   0.60965931   0.04750183
3562.00   0.73768765   0.04976567
3564.00   0.66265982   0.04757759
3566.00   0.66001022   0.04686024
3568.00   0.74062365   0.04839470
3570.00   0.72946370   0.04843762
3572.00   0.72744107   0.04825744
3574.00   0.73341441   0.04739660
3576.00   0.72755611   0.04670465
3578.00   0.66938734   0.04603372
3580.00   0.72063643   0.04609047
3582.00   0.70870805   0.04566083
3584.00   0.72460717   0.04484100
3586.00   0.66409808   0.04498852
3588.00   0.69734114   0.04519770
3590.00   0.65791410   0.04488094
3592.00   0.78658617   0.04637034
3594.00   0.65468174   0.04358454
3596.00   0.80172098   0.04585594
3598.00   0.72830701   0.04462920
3600.00   0.64851922   0.04246568
3602.00   0.67733181   0.04292667
3604.00   0.71259975   0.04338081
3606.00   0.71066779   0.04296331
3608.00   0.75372809   0.04367137
3610.00   0.80460870   0.04524948
3612.00   0.68604833   0.04325489
3614.00   0.68156415   0.04340329
3616.00   0.66876531   0.04300839
3618.00   0.58581817   0.04099886
3620.00   0.62259454   0.04061830
3622.00   0.74461460   0.04256460
3624.00   0.72061056   0.04244889
3626.00   0.69801605   0.04211289
3628.00   0.69820017   0.04290153
3630.00   0.66760516   0.04102161
3632.00   0.77054852   0.04273623
3634.00   0.65808666   0.04075298
3636.00   0.63599730   0.04006290
3638.00   0.65198022   0.04125761
3640.00   0.66519582   0.04057574
3642.00   0.74212211   0.04210022
3644.00   0.65020025   0.04168104
3646.00   0.67549288   0.04684700
3648.00   0.68208635   0.04931184
3650.00   0.83470625   0.04903985
3652.00   0.65698868   0.04509953
3654.00   0.68781155   0.04332890
3656.00   0.66165107   0.04018965
3658.00   0.71400738   0.04135815
3660.00   0.64493561   0.04143329
3662.00   0.64655095   0.04088482
3664.00   0.69981945   0.03905964
3666.00   0.66326022   0.03715746
3668.00   0.70536464   0.03766330
3670.00   0.66799206   0.03731528
3672.00   0.79942858   0.03893507
3674.00   0.76344866   0.03760402
3676.00   0.71857339   0.03717270
3678.00   0.75836110   0.03697338
3680.00   0.77529031   0.03720362
3682.00   0.73056597   0.03637542
3684.00   0.75647628   0.03683434
3686.00   0.83188957   0.03760888
3688.00   0.81367731   0.03743710
3690.00   0.79043162   0.03751534
3692.00   0.78847671   0.03716255
3694.00   0.83475095   0.03724097
3696.00   0.94638884   0.03903193
3698.00   0.87556124   0.03875214
3700.00   0.82735121   0.03784116
3702.00   0.94460970   0.03916933
3704.00   0.96589613   0.03900371
3706.00   0.98455071   0.03908561
3708.00   0.94717318   0.03867663
3710.00   1.01394010   0.03906962
3712.00   1.03402221   0.03945360
3714.00   1.06296051   0.03979320
3716.00   1.07223201   0.03993390
3718.00   1.22618973   0.04162296
3720.00   1.22308517   0.04096957
3722.00   1.25972462   0.04223053
3724.00   1.26446426   0.04199530
3726.00   1.33050883   0.04279782
3728.00   1.30824256   0.04208898
3730.00   1.33081877   0.04265974
3732.00   1.50208950   0.04387395
3734.00   1.38127124   0.04299047
3736.00   1.43736029   0.04368132
3738.00   1.48690760   0.04400485
3740.00   1.38302505   0.04295271
3742.00   1.53792191   0.04396334
3744.00   1.50341165   0.04336691
3746.00   1.46621406   0.04303244
3748.00   1.32142138   0.04105173
3750.00   1.38417840   0.04154915
3752.00   1.31780553   0.04069276
3754.00   1.25315261   0.04017002
3756.00   1.26011384   0.03953484
3758.00   1.20122099   0.03914685
3760.00   1.18597794   0.03853301
3762.00   1.22246242   0.03885937
3764.00   1.15412569   0.03779340
3766.00   1.12062132   0.03723608
3768.00   1.06644201   0.03665310
3770.00   1.05803752   0.03664870
3772.00   1.00693309   0.03553132
3774.00   0.99272275   0.03521795
3776.00   1.01648128   0.03543963
3778.00   0.99322128   0.03523960
3780.00   0.99603134   0.03501958
3782.00   0.85721529   0.03310196
3784.00   0.91917312   0.03393109
3786.00   0.85543311   0.03307424
3788.00   0.93045104   0.03359169
3790.00   0.88468373   0.03336102
3792.00   0.75657713   0.03172360
3794.00   0.77026349   0.03121755
3796.00   0.75207269   0.03093958
3798.00   0.74217486   0.03082903
3800.00   0.74084103   0.03069975
3802.00   0.69022626   0.03016253
3804.00   0.73510349   0.03045192
3806.00   0.74308455   0.02972777
3808.00   0.68350786   0.02917230
3810.00   0.70793873   0.02976114
3812.00   0.68842083   0.02969522
3814.00   0.70960927   0.02984308
3816.00   0.63460660   0.02877853
3818.00   0.60074335   0.02839805
3820.00   0.65834546   0.02903106
3822.00   0.56618899   0.02761162
3824.00   0.61409897   0.02840304
3826.00   0.60003734   0.02791079
3828.00   0.56028980   0.02786116
3830.00   0.58551693   0.02766112
3832.00   0.60528749   0.02771163
3834.00   0.61719149   0.02792633
3836.00   0.57130009   0.02705143
3838.00   0.57866585   0.02765364
3840.00   0.58759558   0.02773222
3842.00   0.57987964   0.02709891
3844.00   0.59197938   0.02708503
3846.00   0.60434794   0.02744515
3848.00   0.66608542   0.02776928
3850.00   0.60390288   0.02713409
3852.00   0.63695627   0.02775912
3854.00   0.66744661   0.02781157
3856.00   0.61029953   0.02674337
3858.00   0.66103148   0.02765032
3860.00   0.70540881   0.02817118
3862.00   0.66082537   0.02730957
3864.00   0.62666911   0.02693433
3866.00   0.69695717   0.02774294
3868.00   0.70416981   0.02765130
3870.00   0.69780117   0.02800544
3872.00   0.68828654   0.02801362
3874.00   0.73838925   0.02853456
3876.00   0.79219609   0.02865542
3878.00   0.79990220   0.02890300
3880.00   0.77699363   0.02849749
3882.00   0.85708231   0.02926248
3884.00   0.81457120   0.02893769
3886.00   0.84767091   0.02904483
3888.00   0.81900197   0.02868434
3890.00   0.90334988   0.02948361
3892.00   0.85079294   0.02910901
3894.00   0.91038793   0.02986565
3896.00   0.97118700   0.03034298
3898.00   0.93232197   0.02998353
3900.00   0.96815658   0.03037013
3902.00   1.05779839   0.03157166
3904.00   1.04180562   0.03239036
3906.00   1.07810163   0.03326567
3908.00   1.11165106   0.03376669
3910.00   1.07246947   0.03344797
3912.00   1.17024124   0.03397130
3914.00   1.15906084   0.03294015
3916.00   1.25665438   0.03338335
3918.00   1.28404987   0.03344489
3920.00   1.27279568   0.03331141
3922.00   1.29727697   0.03328390
3924.00   1.37090111   0.03390449
3926.00   1.33265376   0.03354267
3928.00   1.36814010   0.03367757
3930.00   1.38974965   0.03404691
3932.00   1.32678258   0.03362514
3934.00   1.44532919   0.03419715
3936.00   1.56292009   0.03527867
3938.00   1.54228890   0.03501753
3940.00   1.61432648   0.03578170
3942.00   1.63604605   0.03641437
3944.00   1.78885186   0.03746368
3946.00   1.82013667   0.03742404
3948.00   1.86833382   0.03762924
3950.00   1.79312265   0.03685172
3952.00   1.85038531   0.03743440
3954.00   1.93090415   0.03789165
3956.00   2.02555847   0.03863404
3958.00   1.91749346   0.03808920
3960.00   2.05128455   0.03924808
3962.00   1.96961200   0.03809148
3964.00   2.05687189   0.03847743
3966.00   2.01642990   0.03788381
3968.00   2.02536631   0.03803809
3970.00   2.10822177   0.03875206
3972.00   2.25192094   0.03983055
3974.00   2.17478800   0.03909792
3976.00   2.23266315   0.03964479
3978.00   2.19426918   0.03935702
3980.00   2.15768933   0.03887458
3982.00   2.15329933   0.03883070
3984.00   2.17009974   0.03896785
3986.00   2.18016148   0.03877232
3988.00   2.23933768   0.03921211
3990.00   2.27550006   0.03926892
3992.00   2.29105473   0.03939408
3994.00   2.29381180   0.03954012
3996.00   2.09653497   0.03822461
3998.00   1.94437659   0.03652834
4000.00   2.11283636   0.03766752
4002.00   2.26238394   0.03869002
4004.00   2.32733369   0.03923994
4006.00   2.33122039   0.03936409
4008.00   2.33777356   0.03935859
4010.00   2.35207891   0.03932485
4012.00   2.32331681   0.03894971
4014.00   2.32343650   0.03896321
4016.00   2.22504926   0.03859972
4018.00   2.25522208   0.03958285
4020.00   2.19854450   0.03937841
4022.00   2.20815158   0.03920998
4024.00   2.17698121   0.03820490
4026.00   2.06091309   0.03708083
4028.00   2.04698610   0.03659577
4030.00   1.93845654   0.03577522
4032.00   1.81774950   0.03454508
4034.00   1.79972291   0.03416712
4036.00   1.87554932   0.03467499
4038.00   1.77331293   0.03398076
4040.00   1.79927480   0.03427649
4042.00   1.83496606   0.03709068
4044.00   1.72028959   0.04171769
4046.00   1.72708106   0.04159237
4048.00   1.67646849   0.03586427
4050.00   1.65056551   0.03333810
4052.00   1.57307839   0.03266877
4054.00   1.60214484   0.03270191
4056.00   1.54456592   0.03182578
4058.00   1.48333943   0.03113779
4060.00   1.47664547   0.03102344
4062.00   1.45494986   0.03067063
4064.00   1.45914650   0.03063815
4066.00   1.47504401   0.03072740
4068.00   1.51169538   0.03085615
4070.00   1.45812750   0.03020288
4072.00   1.43468201   0.03004057
4074.00   1.43241918   0.03079337
4076.00   1.46140492   0.03161654
4078.00   1.40530026   0.03099731
4080.00   1.38918686   0.03031978
4082.00   1.36027467   0.03013006
4084.00   1.35078752   0.02961193
4086.00   1.38506830   0.02987711
4088.00   1.44319916   0.02988185
4090.00   1.42638528   0.02944757
4092.00   1.38923502   0.02904480
4094.00   1.42208123   0.02927305
4096.00   1.44468153   0.02934642
4098.00   1.42035592   0.02903636
4100.00   1.39857626   0.02895753
4102.00   1.42514682   0.02888766
4104.00   1.43203521   0.02896223
4106.00   1.53425670   0.02961826
4108.00   1.54798341   0.02979563
4110.00   1.54438758   0.02983369
4112.00   1.58260465   0.02993048
4114.00   1.53916752   0.02971489
4116.00   1.58335209   0.02998786
4118.00   1.56519794   0.02960967
4120.00   1.54780257   0.02947464
4122.00   1.56654263   0.02959670
4124.00   1.62161672   0.02986728
4126.00   1.64224207   0.03013029
4128.00   1.61583591   0.02988882
4130.00   1.69822967   0.03053443
4132.00   1.60657287   0.03014820
4134.00   1.62565720   0.03003076
4136.00   1.64907837   0.02995820
4138.00   1.66565740   0.03029165
4140.00   1.66198194   0.03016964
4142.00   1.68230069   0.02983244
4144.00   1.60601401   0.02928842
4146.00   1.60325837   0.02917425
4148.00   1.58892918   0.02910644
4150.00   1.55664897   0.02912294
4152.00   1.51792324   0.02883991
4154.00   1.50433862   0.02847231
4156.00   1.51489604   0.02833435
4158.00   1.47139013   0.02804117
4160.00   1.43224084   0.02773147
4162.00   1.42195487   0.02800806
4164.00   1.39381933   0.02785492
4166.00   1.39011323   0.02739646
4168.00   1.35087931   0.02680356
4170.00   1.31590748   0.02631225
4172.00   1.33421588   0.02633897
4174.00   1.36756313   0.02651040
4176.00   1.30249310   0.02599648
4178.00   1.32689738   0.02615031
4180.00   1.30294716   0.02592881
4182.00   1.27831376   0.02565312
4184.00   1.27465725   0.02558830
4186.00   1.28929281   0.02577631
4188.00   1.26716197   0.02545427
4190.00   1.29924452   0.02557123
4192.00   1.27335382   0.02550943
4194.00   1.26798713   0.02520629
4196.00   1.23415160   0.02485074
4198.00   1.28516805   0.02526381
4200.00   1.30381191   0.02520588
4202.00   1.24640846   0.02500834
4204.00   1.25912881   0.02511304
4206.00   1.32235038   0.02566086
4208.00   1.34833002   0.02584045
4210.00   1.29485619   0.02557550
4212.00   1.31644809   0.02557302
4214.00   1.36014128   0.02580515
4216.00   1.41241860   0.02607344
4218.00   1.35590136   0.02574977
4220.00   1.47322750   0.02632227
4222.00   1.40888536   0.02586411
4224.00   1.46312332   0.02626144
4226.00   1.45554912   0.02627645
4228.00   1.42453301   0.02606438
4230.00   1.46656978   0.02645607
4232.00   1.49851620   0.02664237
4234.00   1.47808957   0.02666550
4236.00   1.50458610   0.02673322
4238.00   1.52810872   0.02685842
4240.00   1.55465925   0.02674919
4242.00   1.48116589   0.02637221
4244.00   1.53176105   0.02741328
4246.00   1.51935494   0.02769380
4248.00   1.48994744   0.02680393
4250.00   1.50103712   0.02638622
4252.00   1.53027081   0.02643868
4254.00   1.49253750   0.02631119
4256.00   1.52166510   0.02637652
4258.00   1.49517763   0.02611163
4260.00   1.51805496   0.02618341
4262.00   1.51122177   0.02618067
4264.00   1.55683088   0.02633435
4266.00   1.47375727   0.02567291
4268.00   1.47965038   0.02561696
4270.00   1.49530852   0.02588914
4272.00   1.49544072   0.02598069
4274.00   1.44698274   0.02554891
4276.00   1.49736953   0.02601191
4278.00   1.45024633   0.02567939
4280.00   1.47004819   0.02569781
4282.00   1.42333364   0.02538657
4284.00   1.44039512   0.02531610
4286.00   1.44073641   0.02520396
4288.00   1.46434855   0.02545982
4290.00   1.46160889   0.02534468
4292.00   1.43226027   0.02522111
4294.00   1.37348533   0.02480838
4296.00   1.45831788   0.02527993
4298.00   1.42890763   0.02498090
4300.00   1.40842712   0.02488175
4302.00   1.42605662   0.02497686
4304.00   1.35891402   0.02458839
4306.00   1.40795779   0.02492304
4308.00   1.46401167   0.02530184
4310.00   1.39305127   0.02506381
4312.00   1.37870502   0.02533979
4314.00   1.40937185   0.02552407
4316.00   1.41068852   0.02516529
4318.00   1.41805398   0.02535269
4320.00   1.38478220   0.02515117
4322.00   1.39635885   0.02516252
4324.00   1.38213110   0.02488395
4326.00   1.46813607   0.02522753
4328.00   1.38723278   0.02448462
4330.00   1.38605165   0.02453977
4332.00   1.44147313   0.02487023
4334.00   1.37373948   0.02445556
4336.00   1.41758168   0.02480606
4338.00   1.40986609   0.02483225
4340.00   1.38537741   0.02463673
4342.00   1.35697949   0.02456909
4344.00   1.40651965   0.02506515
4346.00   1.35935962   0.02493085
4348.00   1.38902116   0.02510221
4350.00   1.34026623   0.02451527
4352.00   1.33749056   0.02447568
4354.00   1.30312586   0.02802561
4356.00   1.37516236   0.03571772
4358.00   1.33970153   0.03646063
4360.00   1.30503559   0.02966298
4362.00   1.29579926   0.02512200
4364.00   1.30933714   0.02450860
4366.00   1.26474643   0.02407713
4368.00   1.26659477   0.02391716
4370.00   1.24419212   0.02361991
4372.00   1.19360638   0.02365447
4374.00   1.24014902   0.02376084
4376.00   1.22563183   0.02352028
4378.00   1.20223534   0.02296176
4380.00   1.18978536   0.02277350
4382.00   1.14928615   0.02248865
4384.00   1.09250462   0.02210733
4386.00   1.12145174   0.02233660
4388.00   1.07115376   0.02188805
4390.00   1.07283401   0.02196302
4392.00   1.13866377   0.02227036
4394.00   1.06770682   0.02180642
4396.00   1.11435723   0.02210806
4398.00   1.07485664   0.02212204
4400.00   1.04157877   0.02193454
4402.00   1.06023169   0.02183175
4404.00   1.05879414   0.02174064
4406.00   1.04079533   0.02144894
4408.00   1.04121530   0.02152068
4410.00   1.05353105   0.02164916
4412.00   1.03402746   0.02174500
4414.00   1.05908096   0.02187137
4416.00   1.03020036   0.02161208
4418.00   1.04618227   0.02156331
4420.00   1.00648868   0.02124396
4422.00   1.02586102   0.02127029
4424.00   0.99633867   0.02102722
4426.00   0.95696622   0.02067587
4428.00   1.04350102   0.02131744
4430.00   0.96526593   0.02078784
4432.00   0.99973285   0.02109658
4434.00   1.01476622   0.02108559
4436.00   0.99565625   0.02098719
4438.00   0.99008155   0.02099634
4440.00   0.93960661   0.02061583
4442.00   0.94642967   0.02059494
4444.00   0.95697057   0.02070286
4446.00   0.95581031   0.02052956
4448.00   0.96444142   0.02065139
4450.00   0.98088050   0.02068573
4452.00   0.95652580   0.02040816
4454.00   0.98135883   0.02058099
4456.00   0.98450953   0.02060518
4458.00   0.98244548   0.02063294
4460.00   1.03318274   0.02095370
4462.00   1.01091981   0.02088514
4464.00   1.00345623   0.02075815
4466.00   0.98892182   0.02060146
4468.00   1.01362312   0.02074965
4470.00   1.00925601   0.02070243
4472.00   1.00506389   0.02068583
4474.00   1.02065074   0.02073855
4476.00   1.02719605   0.02088827
4478.00   1.02518463   0.02077524
4480.00   1.06681693   0.02109157
4482.00   1.04752243   0.02103140
4484.00   1.05365527   0.02105044
4486.00   1.05441606   0.02101271
4488.00   1.06984270   0.02111145
4490.00   1.13605332   0.02158912
4492.00   1.14465177   0.02174975
4494.00   1.11129570   0.02157396
4496.00   1.10571313   0.02146191
4498.00   1.17797232   0.02187140
4500.00   1.11614335   0.02150856
4502.00   1.15208936   0.02164722
4504.00   1.18123555   0.02180779
4506.00   1.16346681   0.02175567
4508.00   1.18119562   0.02183124
4510.00   1.19919908   0.02189435
4512.00   1.25360382   0.02223684
4514.00   1.22656536   0.02200503
4516.00   1.24627686   0.02206098
4518.00   1.26068318   0.02224219
4520.00   1.29106879   0.02232774
4522.00   1.29163718   0.02229612
4524.00   1.27537036   0.02222855
4526.00   1.28808820   0.02234267
4528.00   1.33974612   0.02259960
4530.00   1.34125531   0.02257536
4532.00   1.41380513   0.02312680
4534.00   1.36646807   0.02276888
4536.00   1.35491717   0.02265264
4538.00   1.42550611   0.02318683
4540.00   1.44378233   0.02326782
4542.00   1.48062873   0.02352461
4544.00   1.46864295   0.02348088
4546.00   1.52203405   0.02380477
4548.00   1.46332705   0.02335961
4550.00   1.48527634   0.02340120
4552.00   1.49400330   0.02345112
4554.00   1.51653743   0.02357340
4556.00   1.47933221   0.02343301
4558.00   1.50826097   0.02355492
4560.00   1.55809641   0.02377907
4562.00   1.58350873   0.02389599
4564.00   1.58447218   0.02390438
4566.00   1.57599640   0.02388497
4568.00   1.60558653   0.02401835
4570.00   1.63202918   0.02414554
4572.00   1.66029024   0.02437948
4574.00   1.67398047   0.02448934
4576.00   1.66665387   0.02434439
4578.00   1.62840652   0.02407673
4580.00   1.67631066   0.02428381
4582.00   1.73577487   0.02452998
4584.00   1.74833262   0.02463325
4586.00   1.78543508   0.02495355
4588.00   1.74153316   0.02469530
4590.00   1.85611808   0.02524124
