# File created by shivutils (I.Shivvers)
# wl(A)   flm    er(optional)
3444.00   16.10678482   0.19934501
3446.00   16.17946243   0.20187289
3448.00   15.86107826   0.20161945
3450.00   16.06384468   0.20615970
3452.00   16.03150940   0.20780571
3454.00   16.03540039   0.21020046
3456.00   15.68132019   0.21034998
3458.00   16.21423149   0.21573642
3460.00   15.93446827   0.21670122
3462.00   15.92283440   0.21932253
3464.00   16.20544052   0.22353001
3466.00   16.55806541   0.22900474
3468.00   16.40870667   0.23143849
3470.00   16.24783134   0.23187679
3472.00   16.64798164   0.23747371
3474.00   16.32358932   0.23765948
3476.00   17.30631828   0.24608110
3478.00   17.68249512   0.25198692
3480.00   17.68616104   0.25509316
3482.00   18.05538559   0.25949284
3484.00   18.58617592   0.26424643
3486.00   18.23228455   0.26448631
3488.00   19.22602844   0.27221426
3490.00   18.70505905   0.27065763
3492.00   18.85544586   0.27274838
3494.00   19.26271439   0.27693543
3496.00   19.54450226   0.27965307
3498.00   19.42144585   0.28070033
3500.00   19.15026855   0.27938578
3502.00   19.72382545   0.28508428
3504.00   19.15209961   0.28137416
3506.00   18.84811974   0.28104952
3508.00   19.41843796   0.28477627
3510.00   19.35888100   0.28490072
3512.00   18.62194824   0.28064865
3514.00   18.67319679   0.28230479
3516.00   18.64690590   0.28217641
3518.00   18.67133331   0.28277048
3520.00   18.89867210   0.28421834
3522.00   18.98199844   0.28460789
3524.00   19.03265953   0.28421977
3526.00   18.84934235   0.28349745
3528.00   19.37000275   0.28712961
3530.00   19.15679741   0.28645140
3532.00   19.24234772   0.28622428
3534.00   19.15437126   0.28467628
3536.00   19.62424469   0.28648624
3538.00   19.73158264   0.28704888
3540.00   19.71289635   0.28713220
3542.00   19.18400955   0.28249407
3544.00   19.71655464   0.28603762
3546.00   19.28326988   0.28320724
3548.00   19.73844147   0.28399247
3550.00   19.85261154   0.28367311
3552.00   19.62662315   0.28150803
3554.00   19.56310844   0.28023198
3556.00   19.08208275   0.27497876
3558.00   19.61194992   0.27738979
3560.00   19.53995705   0.27593276
3562.00   19.55130959   0.27411827
3564.00   19.69541359   0.27287474
3566.00   19.49423027   0.26931968
3568.00   18.95343208   0.26513320
3570.00   18.92637062   0.26344329
3572.00   18.70131302   0.26078016
3574.00   18.31552505   0.25664887
3576.00   18.80024338   0.25717172
3578.00   18.66247368   0.25510088
3580.00   18.71351433   0.25388762
3582.00   17.66320992   0.24578370
3584.00   17.98484230   0.24459815
3586.00   17.53223991   0.24082369
3588.00   17.04409599   0.23694238
3590.00   17.06016731   0.23526433
3592.00   16.36890030   0.22933310
3594.00   16.51440239   0.22862662
3596.00   16.32830048   0.22547722
3598.00   16.19383049   0.22318371
3600.00   15.91662884   0.22008549
3602.00   15.68817043   0.21749462
3604.00   15.83948803   0.21672398
3606.00   15.63649368   0.21414390
3608.00   15.67044640   0.21363090
3610.00   15.38792610   0.20982368
3612.00   15.31215286   0.20796080
3614.00   15.58454227   0.20889427
3616.00   15.33767223   0.20562616
3618.00   15.30672550   0.20432681
3620.00   15.40372086   0.20320971
3622.00   15.33879852   0.20100194
3624.00   14.78797340   0.19678092
3626.00   14.33481216   0.19304194
3628.00   14.52661228   0.19293021
3630.00   13.55105019   0.18624677
3632.00   13.52943611   0.18534049
3634.00   13.22689819   0.18170674
3636.00   13.04551983   0.17940605
3638.00   12.89413643   0.17770135
3640.00   12.44571304   0.17421001
3642.00   12.00896072   0.17048588
3644.00   12.08474827   0.17043903
3646.00   11.93840027   0.16823165
3648.00   11.64970112   0.16873956
3650.00   11.39377594   0.16824365
3652.00   11.28615475   0.16484290
3654.00   10.91777706   0.16084467
3656.00   10.63260174   0.15662798
3658.00   10.70353127   0.15487683
3660.00   10.16944218   0.15125397
3662.00   9.92667389   0.15018663
3664.00   9.90893841   0.14828959
3666.00   9.13869381   0.14123052
3668.00   9.18302250   0.14016058
3670.00   9.05344105   0.13884175
3672.00   8.61383438   0.13523331
3674.00   8.84015179   0.13615169
3676.00   8.43452549   0.13259611
3678.00   8.53962326   0.13291968
3680.00   8.50640869   0.13168186
3682.00   8.44287491   0.13079946
3684.00   8.31446552   0.12875745
3686.00   8.34587097   0.12927467
3688.00   8.27320099   0.12811221
3690.00   7.88065529   0.12515117
3692.00   7.82585907   0.12382399
3694.00   7.93999958   0.12400950
3696.00   7.80144787   0.12250129
3698.00   7.81920671   0.12200220
3700.00   7.77534056   0.12137706
3702.00   7.76519823   0.12079778
3704.00   7.72968388   0.12003577
3706.00   7.62815571   0.11870490
3708.00   7.68301725   0.11868580
3710.00   7.81806850   0.11934956
3712.00   7.82037449   0.11987830
3714.00   7.75870132   0.11789995
3716.00   7.91586447   0.11836827
3718.00   7.89269590   0.11796157
3720.00   7.88117695   0.11772785
3722.00   8.01891899   0.11789586
3724.00   8.10407448   0.11844267
3726.00   8.33231735   0.11990290
3728.00   8.56742096   0.12055328
3730.00   8.89327717   0.12261812
3732.00   9.28583050   0.12469443
3734.00   9.30156994   0.12448110
3736.00   9.32206821   0.12381980
3738.00   9.22815514   0.12357708
3740.00   9.66585159   0.12538840
3742.00   9.58079243   0.12509689
3744.00   9.80897808   0.12563272
3746.00   9.98641491   0.12574115
3748.00   10.13460732   0.12603793
3750.00   9.99708462   0.12487386
3752.00   10.07077217   0.12475452
3754.00   10.25057125   0.12608649
3756.00   10.18733883   0.12538786
3758.00   10.29745102   0.12566778
3760.00   10.50554752   0.12621632
3762.00   10.58533669   0.12626359
3764.00   10.93944359   0.12805061
3766.00   11.12880993   0.12890950
3768.00   11.13274002   0.12872685
3770.00   11.04656410   0.12824340
3772.00   11.09955502   0.12846673
3774.00   11.17180538   0.12820804
3776.00   11.32221127   0.12842728
3778.00   11.60434723   0.12991112
3780.00   11.87993145   0.13155845
3782.00   11.98580074   0.13148078
3784.00   12.12075043   0.13203169
3786.00   12.27207470   0.13288759
3788.00   12.39105034   0.13296504
3790.00   12.53381824   0.13373654
3792.00   12.42543030   0.13314256
3794.00   12.75872231   0.13448869
3796.00   12.90550613   0.13498677
3798.00   12.95954037   0.13478991
3800.00   13.22883511   0.13592593
3802.00   13.34894848   0.13636434
3804.00   13.87412262   0.13840517
3806.00   13.96195030   0.13808329
3808.00   14.21207619   0.13925809
3810.00   14.40523434   0.13965112
3812.00   14.49879074   0.13987061
3814.00   15.25239658   0.14309944
3816.00   15.42258453   0.14368586
3818.00   15.62775326   0.14475924
3820.00   15.89774895   0.14553438
3822.00   16.27223396   0.14713052
3824.00   16.42366982   0.14744589
3826.00   16.95275497   0.14950611
3828.00   17.22377777   0.15034465
3830.00   17.44095039   0.15124187
3832.00   18.27621841   0.15407018
3834.00   18.50158882   0.15431400
3836.00   18.75495338   0.15509917
3838.00   19.34155083   0.15706648
3840.00   19.48242950   0.15724592
3842.00   19.97973633   0.15892047
3844.00   20.58956528   0.16086100
3846.00   20.82382584   0.16136825
3848.00   21.44045448   0.16351078
3850.00   21.57893562   0.16369011
3852.00   22.16293716   0.16532409
3854.00   22.13398743   0.16528259
3856.00   22.28168488   0.16549088
3858.00   22.84167480   0.16734535
3860.00   23.10338783   0.16826613
3862.00   23.16178894   0.16807407
3864.00   23.58893204   0.16933097
3866.00   23.74062920   0.16958579
3868.00   23.84131050   0.16974507
3870.00   23.96393204   0.16978678
3872.00   24.02745438   0.16974148
3874.00   24.32041931   0.17066000
3876.00   24.60891914   0.17163993
3878.00   24.73394203   0.17139032
3880.00   24.57402802   0.17077754
3882.00   24.45626068   0.17016383
3884.00   24.36844063   0.16978787
3886.00   24.64911461   0.17043753
3888.00   24.34757423   0.16910468
3890.00   24.96100616   0.17049615
3892.00   25.23019218   0.17156516
3894.00   25.10619164   0.17107950
3896.00   25.03178596   0.17059763
3898.00   25.21794891   0.17109700
3900.00   25.40198135   0.17134680
3902.00   25.71115875   0.17228565
3904.00   26.14987373   0.17344895
3906.00   26.46656418   0.17478354
3908.00   26.52636147   0.17501239
3910.00   26.97297478   0.17610624
3912.00   26.69428444   0.17543356
3914.00   26.97739983   0.17596267
3916.00   26.88182259   0.17473994
3918.00   27.10053253   0.17498703
3920.00   26.86643410   0.17368273
3922.00   26.51706505   0.17253487
3924.00   26.31522751   0.17165910
3926.00   26.26194572   0.17129399
3928.00   26.02776909   0.17028485
3930.00   25.11094284   0.16732788
3932.00   23.64048767   0.16243802
3934.00   23.81555367   0.16263573
3936.00   24.34149551   0.16374880
3938.00   23.60811234   0.16086911
3940.00   23.86140060   0.16170943
3942.00   23.78509903   0.16120407
3944.00   23.11560822   0.15901016
3946.00   23.28463745   0.15880331
3948.00   22.78574944   0.15679047
3950.00   22.01853752   0.15403925
3952.00   22.04650879   0.15392336
3954.00   22.00334930   0.15351729
3956.00   22.18093872   0.15424033
3958.00   21.97894859   0.15353499
3960.00   21.79842567   0.15292022
3962.00   21.57417488   0.15201415
3964.00   21.57533646   0.15179025
3966.00   20.99497604   0.14958067
3968.00   20.59252548   0.14797734
3970.00   21.08954811   0.14962101
3972.00   21.25511360   0.15003155
3974.00   20.90470505   0.14871661
3976.00   21.06436729   0.14869522
3978.00   20.65580368   0.14706533
3980.00   20.95928764   0.14762735
3982.00   21.14917183   0.14780241
3984.00   21.15030289   0.14715008
3986.00   20.73153305   0.14587881
3988.00   20.76533127   0.14578994
3990.00   21.07548332   0.14678037
3992.00   21.17796516   0.14721480
3994.00   20.75369453   0.14587595
3996.00   21.11308289   0.14702015
3998.00   20.98067856   0.14613289
4000.00   21.33524132   0.14690734
4002.00   21.30994797   0.14644943
4004.00   21.31308365   0.14637071
4006.00   21.69534111   0.14744119
4008.00   21.95694733   0.14790076
4010.00   22.00221062   0.14783852
4012.00   22.14742470   0.14785916
4014.00   22.70028114   0.14930692
4016.00   22.93136978   0.14965662
4018.00   23.22655678   0.15094805
4020.00   23.29634857   0.15121119
4022.00   23.84597588   0.15275842
4024.00   23.95649529   0.15282419
4026.00   24.07825661   0.15226690
4028.00   24.54634094   0.15322421
4030.00   24.63834000   0.15342370
4032.00   25.05992889   0.15432793
4034.00   25.34727478   0.15445283
4036.00   25.16316414   0.15376122
4038.00   25.28005028   0.15390898
4040.00   25.65247726   0.15454574
4042.00   25.76566505   0.15481229
4044.00   25.94977188   0.15816252
4046.00   25.86017418   0.15968834
4048.00   26.03824997   0.15812224
4050.00   26.27991104   0.15534081
4052.00   26.40756607   0.15505311
4054.00   26.86404037   0.15611124
4056.00   26.75148582   0.15544778
4058.00   27.00411797   0.15578932
4060.00   27.26132584   0.15603691
4062.00   27.07527351   0.15506439
4064.00   27.45486259   0.15592028
4066.00   27.43041039   0.15591377
4068.00   27.24372101   0.15505464
4070.00   27.39201164   0.15499727
4072.00   27.59133720   0.15510732
4074.00   27.71080589   0.15541840
4076.00   27.77850151   0.15580374
4078.00   27.97362137   0.15620463
4080.00   27.83192253   0.15535387
4082.00   27.39091873   0.15370156
4084.00   28.07403183   0.15519439
4086.00   27.87060738   0.15447815
4088.00   27.76537514   0.15366875
4090.00   27.89054108   0.15347672
4092.00   28.15894318   0.15386325
4094.00   28.08382988   0.15338379
4096.00   27.73963356   0.15232250
4098.00   27.96552277   0.15256099
4100.00   27.49921036   0.15117428
4102.00   27.25331497   0.15040536
4104.00   26.95325661   0.14927879
4106.00   26.99238586   0.14895722
4108.00   26.37912178   0.14723146
4110.00   26.51992989   0.14714254
4112.00   26.34655571   0.14648338
4114.00   26.09212303   0.14532293
4116.00   26.24296761   0.14516424
4118.00   26.19067764   0.14471413
4120.00   26.07695580   0.14428420
4122.00   26.10307693   0.14409426
4124.00   25.82261658   0.14311276
4126.00   25.91183853   0.14308146
4128.00   25.81269836   0.14250739
4130.00   25.75410461   0.14202318
4132.00   25.78271294   0.14197792
4134.00   25.32519531   0.14060137
4136.00   25.29065132   0.13984494
4138.00   25.16928673   0.13938101
4140.00   25.02028275   0.13870943
4142.00   25.10965157   0.13847521
4144.00   24.89485168   0.13745283
4146.00   24.96655846   0.13715431
4148.00   24.49372101   0.13572821
4150.00   24.62524986   0.13592894
4152.00   24.76751900   0.13608626
4154.00   24.78762436   0.13582471
4156.00   24.80340767   0.13550110
4158.00   24.48000145   0.13430935
4160.00   24.85029030   0.13494384
4162.00   24.53688622   0.13404511
4164.00   24.30959320   0.13350457
4166.00   24.50589180   0.13357587
4168.00   23.99117470   0.13179629
4170.00   24.04431152   0.13171288
4172.00   24.02708435   0.13129286
4174.00   23.80192947   0.13042541
4176.00   23.55867577   0.12966555
4178.00   23.57146263   0.12956724
4180.00   23.30531502   0.12867130
4182.00   23.12047005   0.12789020
4184.00   22.89883804   0.12706916
4186.00   22.76535225   0.12642376
4188.00   22.40414047   0.12522517
4190.00   22.27551842   0.12482785
4192.00   22.04158211   0.12393468
4194.00   22.01844788   0.12368000
4196.00   21.93340111   0.12306900
4198.00   21.60040283   0.12216565
4200.00   21.33740044   0.12127955
4202.00   21.32244110   0.12116637
4204.00   21.05405426   0.12027760
4206.00   20.72315216   0.11919124
4208.00   20.62941360   0.11890166
4210.00   20.11388588   0.11730321
4212.00   20.14467239   0.11712184
4214.00   19.98933411   0.11652531
4216.00   19.79013252   0.11559146
4218.00   19.71751785   0.11523983
4220.00   19.36615753   0.11420926
4222.00   19.24297714   0.11364595
4224.00   19.30472946   0.11464480
4226.00   18.94138336   0.11255263
4228.00   18.69262695   0.11178302
4230.00   18.50871849   0.11084324
4232.00   18.07917976   0.10974704
4234.00   18.01233101   0.10938416
4236.00   17.87933731   0.10895445
4238.00   17.70418549   0.10814643
4240.00   17.47463799   0.10706875
4242.00   16.96888542   0.10541137
4244.00   17.03678322   0.10567810
4246.00   16.52266312   0.10446589
4248.00   16.31346893   0.10353367
4250.00   16.25685692   0.10295979
4252.00   15.97486401   0.10175303
4254.00   15.62808990   0.10062812
4256.00   15.71848965   0.10071927
4258.00   15.20187187   0.09919326
4260.00   14.91881466   0.09812857
4262.00   14.84368420   0.09771212
4264.00   14.70046139   0.09699161
4266.00   14.43481255   0.09597024
4268.00   14.26434898   0.09543309
4270.00   13.98640633   0.09447724
4272.00   14.03079700   0.09452082
4274.00   13.91718006   0.09406560
4276.00   13.99530888   0.09413609
4278.00   13.68433380   0.09312694
4280.00   13.75994682   0.09329812
4282.00   13.67161655   0.09299198
4284.00   13.99725723   0.09390207
4286.00   13.79546642   0.09298281
4288.00   14.02176094   0.09343582
4290.00   13.92384624   0.09306284
4292.00   14.05947876   0.09331686
4294.00   14.23386097   0.09390149
4296.00   14.31035709   0.09395714
4298.00   14.52031040   0.09454119
4300.00   14.60497570   0.09475926
4302.00   14.97829151   0.09567699
4304.00   15.01541615   0.09573769
4306.00   15.05893898   0.09587961
4308.00   15.22229958   0.09614918
4310.00   15.42664814   0.09666283
4312.00   15.52018738   0.09708995
4314.00   15.79372692   0.09789634
4316.00   15.72826576   0.09739295
4318.00   16.18463898   0.09844036
4320.00   15.92348957   0.09775630
4322.00   16.23821831   0.09870170
4324.00   16.55238342   0.09920663
4326.00   16.48729897   0.09891003
4328.00   16.64365387   0.09909998
4330.00   16.60294533   0.09896976
4332.00   16.65570068   0.09935068
4334.00   16.88400269   0.10005737
4336.00   16.66282845   0.09961556
4338.00   17.04739952   0.10040925
4340.00   16.95107460   0.10018635
4342.00   16.91228294   0.09973775
4344.00   17.00692749   0.10014822
4346.00   17.10645866   0.10058765
4348.00   17.05903625   0.10053896
4350.00   16.74254227   0.09941131
4352.00   16.93129158   0.09981325
4354.00   16.89886665   0.10075124
4356.00   16.83364296   0.10544352
4358.00   17.13772011   0.10853936
4360.00   16.78516388   0.10471162
4362.00   17.06423950   0.10163315
4364.00   17.05795097   0.10025258
4366.00   17.56841660   0.10114590
4368.00   17.47394180   0.10069341
4370.00   17.20497131   0.09992065
4372.00   17.30980492   0.10017532
4374.00   17.23060417   0.10009180
4376.00   16.91732407   0.09907462
4378.00   17.01722908   0.09916623
4380.00   16.82433701   0.09851590
4382.00   16.85126114   0.09844072
4384.00   16.61748886   0.09764138
4386.00   16.57706451   0.09746639
4388.00   16.46131516   0.09698252
4390.00   16.26241493   0.09623275
4392.00   16.05010986   0.09570336
4394.00   16.23616219   0.09595031
4396.00   16.05699921   0.09537510
4398.00   16.11176682   0.09552868
4400.00   16.37493134   0.09621676
4402.00   16.05599403   0.09504877
4404.00   16.08892250   0.09500572
4406.00   16.17463493   0.09505543
4408.00   16.10402679   0.09507637
4410.00   16.25054932   0.09537400
4412.00   16.31811905   0.09560487
4414.00   16.28013992   0.09550979
4416.00   16.10227966   0.09509463
4418.00   16.26038551   0.09543434
4420.00   16.57300568   0.09604686
4422.00   16.57193184   0.09589206
4424.00   16.68452072   0.09617395
4426.00   16.82491302   0.09646457
4428.00   17.00550079   0.09714443
4430.00   17.34979248   0.09789553
4432.00   17.52000999   0.09847832
4434.00   17.56730270   0.09857399
4436.00   17.86765671   0.09936059
4438.00   18.04287338   0.09971225
4440.00   18.19072914   0.10019285
4442.00   18.44439697   0.10072956
4444.00   18.29176140   0.10040159
4446.00   18.68781471   0.10134587
4448.00   18.89412689   0.10165513
4450.00   19.01359177   0.10210355
4452.00   19.21853638   0.10249678
4454.00   19.22238159   0.10254807
4456.00   19.62172890   0.10351376
4458.00   19.55603790   0.10349539
4460.00   19.76817703   0.10374478
4462.00   20.02247620   0.10435115
4464.00   20.13728142   0.10464840
4466.00   20.29469299   0.10496889
4468.00   20.40598869   0.10523044
4470.00   20.35126305   0.10493337
4472.00   20.46072578   0.10515092
4474.00   20.47048569   0.10505318
4476.00   20.78119659   0.10575970
4478.00   20.94497490   0.10605820
4480.00   20.66551971   0.10540899
4482.00   21.13366127   0.10651137
4484.00   20.91520309   0.10608666
4486.00   21.41415024   0.10715909
4488.00   21.34768867   0.10707976
4490.00   21.60699463   0.10772399
4492.00   21.64899826   0.10787383
4494.00   21.66609573   0.10790682
4496.00   21.93793488   0.10849345
4498.00   21.79776764   0.10809154
4500.00   21.71186447   0.10789798
4502.00   21.99187851   0.10826700
4504.00   21.95359993   0.10823085
4506.00   22.01552391   0.10826209
4508.00   22.18334389   0.10876832
4510.00   22.05106544   0.10839535
4512.00   21.78578949   0.10778458
4514.00   21.82406807   0.10765896
4516.00   21.70072937   0.10739473
4518.00   21.52539444   0.10691585
4520.00   21.26897621   0.10655246
4522.00   21.25405502   0.10647062
4524.00   21.22993851   0.10641289
4526.00   20.93974495   0.10567694
4528.00   20.85904121   0.10556296
4530.00   20.67451286   0.10494960
4532.00   20.87254906   0.10531294
4534.00   20.72125626   0.10498130
4536.00   20.66130257   0.10495281
4538.00   20.64188004   0.10477690
4540.00   20.64901924   0.10487377
4542.00   20.74685478   0.10493129
4544.00   20.82279587   0.10505047
4546.00   20.71493912   0.10457046
4548.00   20.79705811   0.10474603
4550.00   20.83510780   0.10487643
4552.00   20.83123970   0.10462238
4554.00   20.82429886   0.10468644
4556.00   20.80844688   0.10472840
4558.00   20.72962379   0.10443211
4560.00   20.83103943   0.10479461
4562.00   20.85646629   0.10473543
4564.00   20.48928642   0.10373137
4566.00   20.60938454   0.10399522
4568.00   20.51552200   0.10374514
4570.00   20.48141861   0.10356866
4572.00   20.39072800   0.10334703
4574.00   20.46048355   0.10350051
4576.00   20.31849098   0.10326083
4578.00   20.35356903   0.10312079
4580.00   20.41499901   0.10328434
4582.00   20.20929527   0.10274537
