# File created by shivutils (I.Shivvers)
# wl(A)   flm    er(optional)
3444.00   18.60396767   0.18824284
3446.00   18.44525337   0.18884751
3448.00   18.32818604   0.18892446
3450.00   18.26380539   0.18987833
3452.00   18.60006142   0.19233233
3454.00   18.41014481   0.19251658
3456.00   18.44909668   0.19396318
3458.00   18.39040565   0.19441691
3460.00   18.30429840   0.19530205
3462.00   18.39281273   0.19714625
3464.00   18.60023880   0.19990991
3466.00   18.54351616   0.20101157
3468.00   18.77380371   0.20355633
3470.00   19.24744987   0.20663504
3472.00   19.45311356   0.20852785
3474.00   19.14707565   0.20875125
3476.00   19.54601479   0.21132980
3478.00   19.70368576   0.21354425
3480.00   20.44636345   0.21790305
3482.00   20.48879623   0.21940775
3484.00   20.74487686   0.22046113
3486.00   20.95124626   0.22257887
3488.00   21.08156967   0.22282705
3490.00   21.96977806   0.22682318
3492.00   22.23750496   0.22858714
3494.00   21.71495438   0.22690690
3496.00   22.76443481   0.23173547
3498.00   22.75074387   0.23275676
3500.00   23.10217476   0.23446491
3502.00   23.47458458   0.23656291
3504.00   23.69664192   0.23803000
3506.00   23.57056618   0.23776145
3508.00   23.72965622   0.23870075
3510.00   23.44262886   0.23942119
3512.00   23.80038834   0.23963672
3514.00   23.78429222   0.23996161
3516.00   22.90141296   0.23603590
3518.00   23.79651833   0.24003737
3520.00   23.85246468   0.24009997
3522.00   23.66267204   0.23899919
3524.00   23.88474083   0.24014108
3526.00   23.95233345   0.23969521
3528.00   24.05598640   0.23978342
3530.00   24.10910225   0.23889238
3532.00   24.10993576   0.23928352
3534.00   24.45392990   0.24010189
3536.00   24.32597733   0.23896135
3538.00   24.58665085   0.23925519
3540.00   24.30782700   0.23742051
3542.00   24.66493416   0.23874038
3544.00   24.43029404   0.23684323
3546.00   24.66016769   0.23778535
3548.00   24.90290451   0.23759969
3550.00   25.20517159   0.23861288
3552.00   25.32496262   0.23802282
3554.00   25.64767265   0.23857501
3556.00   25.78296852   0.23779921
3558.00   25.47828102   0.23587574
3560.00   25.11661148   0.23357660
3562.00   25.28019333   0.23317213
3564.00   25.39650154   0.23295182
3566.00   25.32728577   0.23096953
3568.00   25.45718765   0.23035097
3570.00   24.94390106   0.22758521
3572.00   24.84993935   0.22654456
3574.00   24.76740265   0.22469406
3576.00   24.63878250   0.22307928
3578.00   24.51869583   0.22163863
3580.00   24.17185211   0.21898867
3582.00   24.00193024   0.21756302
3584.00   23.87240982   0.21524121
3586.00   23.46573830   0.21308979
3588.00   23.59266663   0.21292725
3590.00   23.44593048   0.21103545
3592.00   23.20741463   0.20959499
3594.00   22.97320557   0.20659696
3596.00   22.82363129   0.20517001
3598.00   22.51453018   0.20280074
3600.00   22.69743729   0.20255317
3602.00   22.03757477   0.19837056
3604.00   22.45302200   0.19967304
3606.00   22.30164528   0.19811609
3608.00   22.18991089   0.19657387
3610.00   22.02525711   0.19518316
3612.00   22.71521187   0.19700974
3614.00   22.97673988   0.19796591
3616.00   23.25230217   0.19766086
3618.00   23.61791039   0.19748944
3620.00   23.76387596   0.19706506
3622.00   23.90612030   0.19669662
3624.00   24.47120476   0.19744188
3626.00   24.25028419   0.19602129
3628.00   24.33114624   0.19582014
3630.00   24.18820381   0.19442634
3632.00   23.69314003   0.19159020
3634.00   23.64638329   0.19058266
3636.00   22.97323227   0.18689059
3638.00   22.69370079   0.18544243
3640.00   22.17918587   0.18264212
3642.00   21.80927467   0.18067762
3644.00   21.20556450   0.17763650
3646.00   20.61539650   0.17513043
3648.00   20.37627411   0.17620236
3650.00   20.24137878   0.17588516
3652.00   19.74831390   0.17145865
3654.00   19.75516701   0.16989660
3656.00   19.18116760   0.16546296
3658.00   18.34796143   0.16068095
3660.00   17.84340668   0.15817907
3662.00   17.50244331   0.15676314
3664.00   16.93483162   0.15469135
3666.00   16.50714874   0.15097521
3668.00   16.27954483   0.14826910
3670.00   15.52093029   0.14403197
3672.00   15.36490345   0.14278486
3674.00   15.17345142   0.14132920
3676.00   14.71303844   0.13879429
3678.00   14.59009552   0.13715371
3680.00   14.21831608   0.13493074
3682.00   13.81950665   0.13284829
3684.00   13.79702282   0.13212049
3686.00   13.49695969   0.13041447
3688.00   13.18642426   0.12831753
3690.00   12.87733555   0.12661809
3692.00   12.66033840   0.12527265
3694.00   12.59227657   0.12445736
3696.00   12.41752148   0.12297919
3698.00   12.02492809   0.12098279
3700.00   11.87076092   0.12020089
3702.00   12.02499771   0.12035343
3704.00   11.99063396   0.11993237
3706.00   12.10165024   0.11991515
3708.00   11.90170765   0.11853396
3710.00   11.81762600   0.11769181
3712.00   11.90539455   0.11769541
3714.00   11.88028908   0.11755385
3716.00   11.77506924   0.11647121
3718.00   11.97360802   0.11688717
3720.00   12.06726456   0.11685456
3722.00   11.76911736   0.11504257
3724.00   11.90028667   0.11526898
3726.00   12.21377182   0.11653392
3728.00   12.39175606   0.11712531
3730.00   12.17007446   0.11622599
3732.00   12.52205563   0.11712991
3734.00   12.75603676   0.11756503
3736.00   12.85676670   0.11791241
3738.00   12.93133926   0.11785813
3740.00   12.78900719   0.11739825
3742.00   13.08894634   0.11836065
3744.00   12.93675137   0.11708564
3746.00   13.21037292   0.11775967
3748.00   13.08633709   0.11661595
3750.00   12.97920704   0.11565972
3752.00   13.19809151   0.11822168
3754.00   13.06526947   0.11843914
3756.00   13.10848904   0.11549800
3758.00   13.10528564   0.11513104
3760.00   12.96477604   0.11398548
3762.00   13.07537079   0.11413685
3764.00   13.02672577   0.11404938
3766.00   12.95694447   0.11340741
3768.00   13.25427628   0.11442964
3770.00   13.16862392   0.11369675
3772.00   13.30709743   0.11415645
3774.00   13.27504635   0.11351959
3776.00   13.52049637   0.11400701
3778.00   13.40272903   0.11357547
3780.00   13.54518700   0.11367106
3782.00   13.49058819   0.11327387
3784.00   13.64189243   0.11374845
3786.00   13.78503895   0.11422577
3788.00   13.78785992   0.11400604
3790.00   13.82950783   0.11412619
3792.00   13.73955154   0.11362226
3794.00   13.97633457   0.11388378
3796.00   14.13072872   0.11432154
3798.00   14.32574940   0.11466525
3800.00   14.36909771   0.11490050
3802.00   14.66435623   0.11555108
3804.00   14.81407356   0.11560651
3806.00   15.17857552   0.11662108
3808.00   15.28545284   0.11659761
3810.00   15.58971882   0.11732044
3812.00   15.69807053   0.11770473
3814.00   16.41109276   0.11995503
3816.00   16.47814369   0.11977990
3818.00   17.04104614   0.12151593
3820.00   16.96344948   0.12146672
3822.00   17.57724571   0.12314153
3824.00   17.96748161   0.12397125
3826.00   18.27330399   0.12471981
3828.00   18.83717155   0.12653765
3830.00   19.05828094   0.12687850
3832.00   19.51913261   0.12792468
3834.00   19.94082069   0.12868935
3836.00   20.39947701   0.12988302
3838.00   20.87731934   0.13092619
3840.00   21.32104683   0.13216345
3842.00   21.90160370   0.13354777
3844.00   22.44433594   0.13471968
3846.00   23.19545937   0.13655291
3848.00   23.77075958   0.13795365
3850.00   24.25629997   0.13886741
3852.00   24.52039719   0.13933147
3854.00   25.27506638   0.14120357
3856.00   26.34132957   0.14372873
3858.00   26.85201263   0.14472196
3860.00   27.00927734   0.14516929
3862.00   27.01409149   0.14497851
3864.00   27.81425476   0.14681131
3866.00   27.96436691   0.14682485
3868.00   28.51248169   0.14758208
3870.00   28.74653816   0.14799260
3872.00   28.84051895   0.14822282
3874.00   29.08606911   0.14857525
3876.00   29.23585510   0.14863326
3878.00   29.60955620   0.14919460
3880.00   29.32428169   0.14823423
3882.00   29.77250099   0.14902352
3884.00   30.13216591   0.14954355
3886.00   29.75522041   0.14857472
3888.00   29.90900230   0.14857414
3890.00   30.24901962   0.14922990
3892.00   30.36106873   0.14923815
3894.00   30.89376640   0.15016779
3896.00   31.12485504   0.15051956
3898.00   31.56653214   0.15117317
3900.00   31.65074730   0.15126227
3902.00   31.66316414   0.15122320
3904.00   31.85278511   0.15160587
3906.00   32.21497345   0.15259497
3908.00   32.68832779   0.15373363
3910.00   32.52252960   0.15332992
3912.00   33.02518845   0.15405215
3914.00   32.94157410   0.15338849
3916.00   33.10468674   0.15298915
3918.00   33.29912186   0.15303937
3920.00   33.69535828   0.15356490
3922.00   33.76763535   0.15349752
3924.00   33.40860748   0.15247595
3926.00   33.73029709   0.15302241
3928.00   33.73487091   0.15262319
3930.00   32.90429306   0.15071268
3932.00   31.29070091   0.14699139
3934.00   31.56495476   0.14720643
3936.00   32.24782181   0.14831807
3938.00   32.22100449   0.14809594
3940.00   31.70846748   0.14664452
3942.00   31.50650787   0.14600065
3944.00   31.21796417   0.14507516
3946.00   30.84128189   0.14371260
3948.00   30.66337204   0.14287099
3950.00   30.23267746   0.14147271
3952.00   29.58179855   0.13983175
3954.00   29.23587418   0.13895668
3956.00   29.09116936   0.13844867
3958.00   28.69685364   0.13751610
3960.00   28.70400429   0.13756849
3962.00   28.31000710   0.13657482
3964.00   28.00284767   0.13535820
3966.00   27.43552589   0.13390529
3968.00   26.70305252   0.13178837
3970.00   27.17299271   0.13287003
3972.00   27.02555275   0.13219932
3974.00   26.96109009   0.13193043
3976.00   27.01106453   0.13167728
3978.00   26.75979424   0.13078929
3980.00   26.33549690   0.12926105
3982.00   26.29792976   0.12880965
3984.00   26.17519379   0.12845218
3986.00   26.19078064   0.12808125
3988.00   26.32543945   0.12832472
3990.00   26.47251511   0.12864798
3992.00   26.64760017   0.12901367
3994.00   26.49040985   0.12866127
3996.00   26.67171097   0.12905365
3998.00   26.44685745   0.12839769
4000.00   26.07794571   0.12714025
4002.00   26.29453468   0.12742341
4004.00   26.72879791   0.12824164
4006.00   26.62302399   0.12796256
4008.00   26.72571182   0.12786576
4010.00   26.85057831   0.12812565
4012.00   27.07030106   0.12838617
4014.00   27.21438789   0.12921546
4016.00   27.64423943   0.12913212
4018.00   28.09956551   0.13041010
4020.00   28.20951653   0.13073801
4022.00   28.52169609   0.13149799
4024.00   28.88375473   0.13180840
4026.00   29.01463318   0.13154697
4028.00   29.42975044   0.13214347
4030.00   29.74104881   0.13234560
4032.00   29.79957581   0.13225600
4034.00   30.38062859   0.13314454
4036.00   30.58340645   0.13335672
4038.00   30.83111763   0.13354024
4040.00   31.01756096   0.13376032
4042.00   31.41770363   0.13460334
4044.00   31.58927727   0.13756567
4046.00   31.65990448   0.13927087
4048.00   31.53082085   0.13698979
4050.00   32.10182571   0.13563141
4052.00   32.28519440   0.13493587
4054.00   32.60129929   0.13530953
4056.00   32.44369888   0.13472980
4058.00   32.86248016   0.13506114
4060.00   33.08209991   0.13499673
4062.00   33.19057083   0.13496983
4064.00   33.50754166   0.13535011
4066.00   33.79809570   0.13574116
4068.00   34.29965973   0.13633785
4070.00   34.06351852   0.13568445
4072.00   34.21460724   0.13578518
4074.00   34.61454010   0.13629852
4076.00   34.42289352   0.13620676
4078.00   34.50924683   0.13615507
4080.00   34.67506790   0.13593748
4082.00   34.56286240   0.13526219
4084.00   34.87590408   0.13568068
4086.00   34.71701050   0.13505687
4088.00   34.99100876   0.13508935
4090.00   34.88001251   0.13444115
4092.00   34.61688614   0.13366096
4094.00   34.83066177   0.13375477
4096.00   34.93032837   0.13377066
4098.00   35.02726364   0.13387524
4100.00   34.95543671   0.13349266
4102.00   34.90530777   0.13307801
4104.00   34.80833817   0.13264091
4106.00   34.62477875   0.13215828
4108.00   34.84533310   0.13218246
4110.00   34.90178680   0.13197529
4112.00   34.82957840   0.13147345
4114.00   34.32086182   0.13038635
4116.00   34.19800949   0.12979481
4118.00   33.91798782   0.12901646
4120.00   33.44455338   0.12793796
4122.00   33.28246307   0.12746200
4124.00   33.02928162   0.12677923
4126.00   32.80573273   0.12610517
4128.00   32.53122711   0.12555417
4130.00   32.43568039   0.12530258
4132.00   32.19812012   0.12471465
4134.00   32.25114059   0.12446488
4136.00   32.27473831   0.12417977
4138.00   32.27948380   0.12407806
4140.00   32.22288132   0.12392568
4142.00   32.34727859   0.12378650
4144.00   32.29912949   0.12334356
4146.00   32.09844208   0.12273816
4148.00   31.87526894   0.12216576
4150.00   32.02092743   0.12235231
4152.00   31.35877800   0.12104206
4154.00   31.37262917   0.12087766
4156.00   31.12987137   0.12021144
4158.00   31.13773155   0.11990830
4160.00   30.91236115   0.11943600
4162.00   30.64166069   0.11873567
4164.00   30.64263916   0.11884980
4166.00   30.67402077   0.11871161
4168.00   30.75356102   0.11845384
4170.00   30.89165688   0.11840928
4172.00   30.84622383   0.11811257
4174.00   30.61004257   0.11745904
4176.00   30.71800041   0.11752067
4178.00   30.76214027   0.11756068
4180.00   30.41935349   0.11680820
4182.00   30.42967796   0.11651444
4184.00   30.31937790   0.11618209
4186.00   30.06875420   0.11545005
4188.00   29.66604424   0.11452597
4190.00   29.56736374   0.11415856
4192.00   29.25549126   0.11338242
4194.00   28.91150665   0.11258117
4196.00   28.48714828   0.11153726
4198.00   28.18461800   0.11087994
4200.00   27.91462326   0.11014791
4202.00   27.72018623   0.10972217
4204.00   27.45030022   0.10903623
4206.00   27.06908607   0.10815568
4208.00   26.63232422   0.10729814
4210.00   26.40738678   0.10665849
4212.00   26.18231583   0.10595635
4214.00   26.00730515   0.10551389
4216.00   25.67876434   0.10466948
4218.00   25.48742294   0.10414588
4220.00   25.25875282   0.10353733
4222.00   25.16831970   0.10318172
4224.00   24.68830109   0.10216225
4226.00   24.61310959   0.10198397
4228.00   24.52276611   0.10155118
4230.00   24.20496178   0.10082398
4232.00   23.75693130   0.09993170
4234.00   23.58843613   0.09944317
4236.00   23.41956329   0.09884858
4238.00   23.12455559   0.09817401
4240.00   22.84269524   0.09735584
4242.00   22.66316032   0.09661867
4244.00   22.13533783   0.09575882
4246.00   21.95235634   0.09557395
4248.00   21.48890114   0.09435147
4250.00   21.26064491   0.09353739
4252.00   21.05658531   0.09278627
4254.00   20.66011238   0.09187432
4256.00   20.25131798   0.09099379
4258.00   19.93745804   0.09008859
4260.00   19.59216309   0.08920692
4262.00   19.23244095   0.08833086
4264.00   18.84812355   0.08738875
4266.00   18.52625084   0.08651780
4268.00   18.36039352   0.08613499
4270.00   18.09916496   0.08540947
4272.00   17.92158127   0.08487651
4274.00   17.79641914   0.08458872
4276.00   17.51822281   0.08380431
4278.00   17.25060654   0.08317320
4280.00   17.17049408   0.08300781
4282.00   17.16837311   0.08287767
4284.00   17.35707664   0.08311097
4286.00   17.15030479   0.08254832
4288.00   17.12669754   0.08222825
4290.00   17.17152405   0.08214656
4292.00   17.03621674   0.08191145
4294.00   17.26786613   0.08227053
4296.00   17.44544220   0.08257838
4298.00   17.44790649   0.08247750
4300.00   17.51897621   0.08253506
4302.00   17.57743073   0.08260480
4304.00   17.80394173   0.08304040
4306.00   18.00890350   0.08344067
4308.00   17.99943924   0.08329339
4310.00   17.96829987   0.08328725
4312.00   18.14334297   0.08371573
4314.00   18.40292740   0.08426383
4316.00   18.66558075   0.08458950
4318.00   18.88139343   0.08489683
4320.00   19.12708092   0.08536224
4322.00   19.40642738   0.08561072
4324.00   19.69185638   0.08971038
4326.00   19.76243019   0.08629208
4328.00   20.09133911   0.08668873
4330.00   20.04582405   0.08660351
4332.00   20.24948502   0.08704077
4334.00   20.45113754   0.08755487
4336.00   20.33892822   0.08741718
4338.00   20.41821861   0.08752973
4340.00   20.39328766   0.08738527
4342.00   20.32256508   0.08709080
4344.00   20.61002541   0.08767228
4346.00   20.52129555   0.08763017
4348.00   20.32672501   0.08739184
4350.00   20.28222847   0.08714618
4352.00   20.40316010   0.08727759
4354.00   20.40590286   0.08814568
4356.00   20.51449776   0.09271776
4358.00   20.75845146   0.09540903
4360.00   20.51210403   0.09247142
4362.00   20.57857513   0.08918057
4364.00   21.05054092   0.08844364
4366.00   21.12735176   0.08844605
4368.00   21.32989883   0.08863413
4370.00   21.41024590   0.08864466
4372.00   21.42657661   0.08884492
4374.00   21.78115082   0.08949511
4376.00   21.75541687   0.08936244
4378.00   21.91904640   0.08946642
4380.00   22.09049606   0.08967864
4382.00   22.15492439   0.08968610
4384.00   22.02555656   0.08941334
4386.00   21.91076279   0.08897862
4388.00   21.87578773   0.08891845
4390.00   21.86007309   0.08879014
4392.00   21.63022423   0.08834033
4394.00   21.47468185   0.08783247
4396.00   21.23140907   0.08727720
4398.00   20.95140266   0.08673716
4400.00   21.19487762   0.08706266
4402.00   20.80750084   0.08620530
4404.00   20.67334366   0.08566310
4406.00   20.41837120   0.08504281
4408.00   20.25636292   0.08483311
4410.00   20.17833138   0.08461138
4412.00   19.96922684   0.08414518
4414.00   20.03053856   0.08425029
4416.00   19.99691010   0.08401151
4418.00   19.74270630   0.08347248
4420.00   19.89756966   0.08355538
4422.00   19.81105995   0.08329224
4424.00   19.70342827   0.08309073
4426.00   19.79867744   0.08323482
4428.00   19.94676781   0.08342363
4430.00   19.86280632   0.08331763
4432.00   19.95736694   0.08342776
4434.00   20.25473785   0.08395925
4436.00   20.24680901   0.08400646
4438.00   20.50416565   0.08456718
4440.00   20.56010056   0.08466401
4442.00   20.61784172   0.08478401
4444.00   21.03412056   0.08549348
4446.00   21.01156425   0.08545598
4448.00   21.28651047   0.08588897
4450.00   21.58530807   0.08638091
4452.00   21.65064240   0.08650669
4454.00   22.08769035   0.08726063
4456.00   22.52018356   0.08811867
4458.00   22.79442024   0.08860853
4460.00   22.99531937   0.08888801
4462.00   23.42462540   0.08969323
4464.00   23.86232758   0.09038854
4466.00   24.15373230   0.09091686
4468.00   24.41921425   0.09140004
4470.00   24.61997986   0.09161884
4472.00   24.77962112   0.09183870
4474.00   25.11593246   0.09233159
4476.00   25.39592934   0.09260754
4478.00   25.17306709   0.09226612
4480.00   25.46019936   0.09272682
4482.00   25.40574074   0.09255943
4484.00   25.65476418   0.09307726
4486.00   25.76939201   0.09321149
4488.00   25.93019867   0.09338965
4490.00   26.12335205   0.09378710
4492.00   26.33387756   0.09418462
4494.00   26.40471840   0.09430567
4496.00   26.67109299   0.09472261
4498.00   26.77739143   0.09487420
4500.00   26.77445221   0.09482102
4502.00   26.95427132   0.09504946
4504.00   27.11229324   0.09526711
4506.00   27.16798782   0.09527849
4508.00   27.31030083   0.09551267
4510.00   27.65497208   0.09599797
4512.00   27.78920937   0.09619333
4514.00   27.73960686   0.09606403
4516.00   27.81603813   0.09610306
4518.00   27.90459824   0.09634515
4520.00   27.82525063   0.09683739
4522.00   27.53808594   0.09587221
4524.00   27.71702957   0.09610110
4526.00   27.34566879   0.09548452
4528.00   27.30655289   0.09540176
4530.00   27.27028465   0.09525900
4532.00   26.96134186   0.09473766
4534.00   27.04458618   0.09476689
4536.00   26.80639076   0.09427079
4538.00   26.82757759   0.09420629
4540.00   26.57997894   0.09420313
4542.00   26.55712128   0.09393890
4544.00   26.39703369   0.09417600
4546.00   26.36934090   0.09329838
4548.00   26.55674744   0.09346004
4550.00   26.60888100   0.09340407
4552.00   26.40373421   0.09308808
4554.00   26.42628479   0.09314550
4556.00   26.58319283   0.09330963
4558.00   26.45039368   0.09318537
4560.00   26.34095573   0.09292788
4562.00   26.45747566   0.09308551
4564.00   26.56182480   0.09315089
4566.00   26.75923538   0.09348947
4568.00   26.77302933   0.09341016
4570.00   26.52955437   0.09303804
4572.00   26.56717491   0.09309208
4574.00   26.51494408   0.09301247
4576.00   26.27961540   0.09262104
4578.00   26.31917953   0.09263846
4580.00   26.26118088   0.09249839
