# File created by shivutils (I.Shivvers)
# wl(A)   flm    er(optional)
3458.00   2.21700556   0.44106455
3460.00   2.82367701   0.44172877
3462.00   2.52044530   0.45036501
3464.00   2.59317335   0.46925686
3466.00   1.39412746   0.46815572
3468.00   1.04712712   0.47330615
3470.00   1.69352442   0.47448447
3472.00   2.59474337   0.47152762
3474.00   1.62211396   0.45044156
3476.00   1.73546925   0.45272974
3478.00   2.28811463   0.48226981
3480.00   1.45733213   0.49766620
3482.00   2.01250104   0.48993085
3484.00   1.79347225   0.49087404
3486.00   2.90120293   0.50903337
3488.00   2.92581949   0.50109049
3490.00   2.51305423   0.47676377
3492.00   1.85945537   0.47557452
3494.00   1.37829208   0.47688886
3496.00   1.30928576   0.47361076
3498.00   2.79302223   0.49878738
3500.00   2.62593197   0.51839078
3502.00   1.25765350   0.51571035
3504.00   2.61001379   0.51850589
3506.00   2.42999700   0.51060632
3508.00   2.72403225   0.51037730
3510.00   2.45200276   0.50144689
3512.00   0.89128541   0.47972291
3514.00   2.29141143   0.48037845
3516.00   2.01136371   0.49620523
3518.00   2.14958544   0.50740825
3520.00   1.60949790   0.49159770
3522.00   2.39015938   0.47593070
3524.00   2.85501110   0.46326149
3526.00   2.50452744   0.46799218
3528.00   1.72767471   0.48603684
3530.00   2.07400768   0.49446038
3532.00   1.77049887   0.48947611
3534.00   2.60728435   0.50476841
3536.00   2.40056782   0.50660541
3538.00   2.35709142   0.50917188
3540.00   3.10614382   0.50581591
3542.00   2.73477160   0.50892760
3544.00   3.34384147   0.51956886
3546.00   2.90201090   0.51272437
3548.00   2.85129819   0.51309253
3550.00   2.93764472   0.51004776
3552.00   2.36417353   0.48507572
3554.00   1.42251075   0.47029573
3556.00   2.69486889   0.48563959
3558.00   3.01224303   0.48415765
3560.00   3.53708868   0.48899277
3562.00   2.77659431   0.48961163
3564.00   3.04904738   0.46655344
3566.00   1.56616610   0.43440618
3568.00   2.85895366   0.43678435
3570.00   1.93657200   0.42177075
3572.00   2.81655187   0.44491061
3574.00   3.45777970   0.45882161
3576.00   2.21681954   0.44642870
3578.00   2.64175205   0.43280956
3580.00   2.89565293   0.41330197
3582.00   2.46911015   0.40344072
3584.00   2.56169704   0.38443544
3586.00   2.89396536   0.38333570
3588.00   2.28628674   0.38881114
3590.00   2.98535994   0.42390176
3592.00   2.25498174   0.41853609
3594.00   2.67831688   0.41748460
3596.00   2.94989286   0.42282089
3598.00   2.63940097   0.42613692
3600.00   1.67470156   0.41690902
3602.00   2.11528398   0.40385513
3604.00   3.00218681   0.39383163
3606.00   2.57244325   0.38129486
3608.00   2.14220063   0.36848963
3610.00   2.51485494   0.37481262
3612.00   3.00607293   0.39781787
3614.00   3.01231592   0.40628919
3616.00   2.96992840   0.39240668
3618.00   2.65882965   0.36307967
3620.00   3.29892437   0.36686385
3622.00   3.73092760   0.38733801
3624.00   3.60161312   0.39704607
3626.00   2.76162164   0.39741385
3628.00   3.50618682   0.40291774
3630.00   3.06434252   0.38039626
3632.00   3.56553792   0.37500148
3634.00   3.34234379   0.36966118
3636.00   3.88343651   0.37925921
3638.00   3.69978705   0.38692068
3640.00   3.58036821   0.39172307
3642.00   3.87383414   0.39497147
3644.00   3.82154640   0.39485676
3646.00   4.12242987   0.39474116
3648.00   2.92412604   0.45985862
3650.00   3.63660728   0.51754373
3652.00   4.38826928   0.49429789
3654.00   3.75091739   0.45794114
3656.00   2.83348180   0.42829717
3658.00   4.27231011   0.39894869
3660.00   3.21510890   0.39810859
3662.00   4.96346730   0.43174103
3664.00   4.87154273   0.41935104
3666.00   4.31994297   0.37883817
3668.00   4.52701335   0.36204774
3670.00   4.28959182   0.35942167
3672.00   4.20457678   0.35926192
3674.00   3.64841137   0.35318890
3676.00   3.48093687   0.34215102
3678.00   4.26001142   0.33759322
3680.00   4.39058658   0.33642323
3682.00   4.27858877   0.33963707
3684.00   4.50382437   0.33571968
3686.00   4.42471357   0.32453402
3688.00   4.81372465   0.32704633
3690.00   4.27244607   0.33922411
3692.00   4.27940159   0.34206953
3694.00   4.66866945   0.33567927
3696.00   4.37759731   0.33362051
3698.00   5.37687913   0.34440496
3700.00   4.91165913   0.34425236
3702.00   4.85748626   0.33401707
3704.00   5.12785711   0.32113641
3706.00   4.81793559   0.31077105
3708.00   4.42578523   0.30684906
3710.00   5.10986347   0.32047008
3712.00   5.32072242   0.33387960
3714.00   5.11893737   0.33831892
3716.00   5.15010309   0.32974013
3718.00   4.81054496   0.31123041
3720.00   5.01876816   0.29757698
3722.00   5.11658161   0.29671111
3724.00   5.21947208   0.31498833
3726.00   5.27252001   0.32061737
3728.00   5.18399149   0.31633907
3730.00   5.44293944   0.31242399
3732.00   5.17927517   0.29490163
3734.00   5.10687944   0.27585805
3736.00   4.63508173   0.27013524
3738.00   4.36875154   0.28644638
3740.00   4.29603890   0.29977863
3742.00   4.59512199   0.29890102
3744.00   4.23925850   0.27688891
3746.00   4.72935880   0.27247716
3748.00   4.37678972   0.26429461
3750.00   4.32818019   0.27284251
3752.00   4.46949868   0.29453231
3754.00   3.98157003   0.30221524
3756.00   4.02594127   0.29135703
3758.00   3.97453694   0.27667415
3760.00   3.87334455   0.27491880
3762.00   4.22806611   0.28232824
3764.00   4.47917525   0.28313904
3766.00   3.52639710   0.27330119
3768.00   3.33858496   0.27181321
3770.00   4.01181377   0.28232609
3772.00   4.16488373   0.28839185
3774.00   3.95189224   0.29118575
3776.00   3.65990215   0.28815152
3778.00   3.63972063   0.28978305
3780.00   3.61560030   0.29239670
3782.00   3.17882595   0.29186053
3784.00   3.42678655   0.29002971
3786.00   3.19197014   0.27632359
3788.00   2.37768671   0.26317778
3790.00   3.09966721   0.27016463
3792.00   2.48576086   0.26529473
3794.00   3.22285490   0.26171047
3796.00   2.86025868   0.24968590
3798.00   2.99344878   0.24959461
3800.00   2.59047840   0.25418332
3802.00   2.62253810   0.26793179
3804.00   2.74673410   0.26897064
3806.00   3.00959759   0.26532399
3808.00   3.15122166   0.26520555
3810.00   2.74427762   0.26790457
3812.00   2.04044447   0.25542974
3814.00   2.49717788   0.24304500
3816.00   2.29270534   0.24122048
3818.00   2.32404128   0.23927882
3820.00   2.38386639   0.23360433
3822.00   2.01063018   0.23099083
3824.00   2.11973781   0.22762550
3826.00   2.74725751   0.22314944
3828.00   2.41826938   0.22662638
3830.00   2.38101069   0.22707198
3832.00   1.72224389   0.21365644
3834.00   2.13363686   0.21673151
3836.00   2.43612799   0.22167214
3838.00   1.76277722   0.21378312
3840.00   1.91208018   0.21942541
3842.00   2.08545003   0.23323363
3844.00   1.80524110   0.23911510
3846.00   2.05688672   0.24183255
3848.00   1.68147869   0.23595275
3850.00   1.54620110   0.23722624
3852.00   1.02576028   0.23864878
3854.00   1.55739555   0.23731312
3856.00   2.31502654   0.23300723
3858.00   1.95738424   0.21860237
3860.00   1.53106021   0.21614328
3862.00   2.22674754   0.23573207
3864.00   2.42248043   0.24196161
3866.00   2.74765962   0.24009373
3868.00   1.98560242   0.22933870
3870.00   2.15747404   0.22263819
3872.00   2.17137462   0.22698333
3874.00   2.09100117   0.24305065
3876.00   2.73326771   0.24657457
3878.00   2.80819079   0.23626575
3880.00   2.82839105   0.23401240
3882.00   3.22506534   0.24111735
3884.00   2.82059057   0.24042379
3886.00   3.06220431   0.24101157
3888.00   3.37465983   0.24264439
3890.00   3.30269312   0.24688995
3892.00   3.66923468   0.25385341
3894.00   2.99334942   0.25300571
3896.00   3.56769520   0.25685807
3898.00   3.26882629   0.25387982
3900.00   3.06954385   0.25012649
3902.00   2.91526175   0.25027243
3904.00   3.00819540   0.25101064
3906.00   3.26459487   0.26844635
3908.00   2.31317763   0.27961779
3910.00   3.43568712   0.29275275
3912.00   2.40297772   0.29877359
3914.00   2.54230834   0.28796811
3916.00   2.96460494   0.26410295
3918.00   3.03731747   0.24537174
3920.00   3.61285235   0.23717590
3922.00   3.25187108   0.23065572
3924.00   3.15347175   0.23021179
3926.00   2.78915239   0.21843001
3928.00   3.05805079   0.20711592
3930.00   3.50544743   0.19810414
3932.00   2.78521577   0.19455291
3934.00   2.61741041   0.19245409
3936.00   3.19920368   0.19502090
3938.00   3.39918890   0.20510095
3940.00   3.61382912   0.21789472
3942.00   3.63880846   0.22630338
3944.00   3.89080470   0.23686953
3946.00   3.38082606   0.23636195
3948.00   2.99412553   0.23368298
3950.00   3.66464091   0.23753582
3952.00   3.39104156   0.23456865
3954.00   3.34178350   0.23447371
3956.00   3.59214028   0.23275633
3958.00   3.75711619   0.23440725
3960.00   3.41177880   0.23493303
3962.00   3.68242789   0.22664859
3964.00   3.73480725   0.20982351
3966.00   3.71643820   0.19517167
3968.00   3.60721852   0.18627130
3970.00   3.60559201   0.18991539
3972.00   3.94799625   0.20390111
3974.00   4.11847549   0.21675075
3976.00   4.22027850   0.22549171
3978.00   4.27470858   0.23249487
3980.00   3.99961007   0.23614248
3982.00   4.30609273   0.23725218
3984.00   4.40071286   0.23699134
3986.00   4.75573009   0.24026075
3988.00   4.21302252   0.24274887
3990.00   5.08226572   0.24838703
3992.00   4.17162539   0.24384763
3994.00   5.15376964   0.25100696
3996.00   5.19710768   0.25470299
3998.00   4.69339539   0.25190541
4000.00   5.10102772   0.24878084
4002.00   5.02873288   0.24596559
4004.00   5.44860966   0.24249166
4006.00   5.65934485   0.24161116
4008.00   5.80082816   0.24667380
4010.00   6.50776344   0.25321892
4012.00   6.04319752   0.25054407
4014.00   6.01852170   0.25034301
4016.00   5.91382051   0.24934637
4018.00   5.84144069   0.26075777
4020.00   6.36824522   0.27922903
4022.00   5.67405116   0.28201269
4024.00   6.23232165   0.27725168
4026.00   6.39299490   0.26747392
4028.00   6.41154752   0.25920047
4030.00   6.25536138   0.25151016
4032.00   6.52060575   0.24624819
4034.00   6.07204909   0.24477852
4036.00   6.55258875   0.25002804
4038.00   5.93568540   0.24690907
4040.00   5.96922671   0.25784985
4042.00   6.35092255   0.26011554
4044.00   6.06833874   0.32802311
4046.00   6.67148118   0.40076337
4048.00   6.28600331   0.37523324
4050.00   5.79589788   0.28403417
4052.00   5.83659560   0.25440489
4054.00   6.15990610   0.25492172
4056.00   6.76888391   0.25141575
4058.00   6.34606722   0.24136835
4060.00   5.64998400   0.23674803
4062.00   6.35703203   0.23407806
4064.00   6.27599262   0.23079601
4066.00   6.53625136   0.23575665
4068.00   6.34347767   0.23890005
4070.00   6.41855555   0.23598799
4072.00   6.67900930   0.23375396
4074.00   6.03161044   0.23663681
4076.00   6.28460297   0.25358945
4078.00   6.46154998   0.26205631
4080.00   6.13382689   0.25813090
4082.00   6.52148622   0.25333430
4084.00   6.51492224   0.25015126
4086.00   5.98993290   0.24630678
4088.00   6.55927431   0.24620167
4090.00   6.23084614   0.23682807
4092.00   6.54530902   0.23432813
4094.00   6.42619980   0.23139214
4096.00   6.77124207   0.22999255
4098.00   6.38505259   0.22551879
4100.00   6.61516466   0.21980116
4102.00   6.65159206   0.21661833
4104.00   6.43647870   0.21933640
4106.00   6.42365513   0.22452128
4108.00   5.92051478   0.22455344
4110.00   6.41234062   0.22605210
4112.00   6.05849757   0.22531669
4114.00   5.96090419   0.22794157
4116.00   6.08876430   0.22870512
4118.00   5.71117165   0.22198091
4120.00   5.28066670   0.21779835
4122.00   5.49393349   0.21844788
4124.00   5.34168582   0.21859825
4126.00   5.49260461   0.21874376
4128.00   4.94445310   0.21501371
4130.00   5.28920885   0.21582431
4132.00   4.91571679   0.21620646
4134.00   4.39814717   0.21493299
4136.00   4.70684374   0.21521702
4138.00   5.05779035   0.22168242
4140.00   5.03526483   0.22330015
4142.00   4.71844716   0.21381922
4144.00   4.85941573   0.20730798
4146.00   4.47517304   0.20704492
4148.00   4.54930672   0.20879188
4150.00   4.74111191   0.21433690
4152.00   4.89646650   0.21805426
4154.00   4.90840862   0.21407785
4156.00   5.13036910   0.20913307
4158.00   4.67692247   0.20667266
4160.00   5.44179184   0.21333068
4162.00   5.07775922   0.21671839
4164.00   5.22037967   0.22404139
4166.00   5.06692514   0.22117912
4168.00   5.18460810   0.21195577
4170.00   5.37071126   0.20570632
4172.00   5.58385233   0.20283654
4174.00   5.41767664   0.20030683
4176.00   5.15326121   0.20173737
4178.00   5.66783775   0.20589845
4180.00   5.49961940   0.20355163
4182.00   5.68826810   0.20178366
4184.00   6.11244243   0.20280962
4186.00   5.71003386   0.20091637
4188.00   5.98649207   0.20139922
4190.00   5.78761479   0.20223368
4192.00   6.63316407   0.20772280
4194.00   6.26276225   0.20477631
4196.00   5.64911431   0.19792967
4198.00   5.85655640   0.19698387
4200.00   5.62900208   0.19449458
4202.00   5.45095387   0.19491678
4204.00   5.99024143   0.20022499
4206.00   5.96386502   0.20225413
4208.00   6.16582100   0.20524135
4210.00   6.10654060   0.20564823
4212.00   6.02079097   0.20528375
4214.00   5.73588931   0.20146211
4216.00   5.73394404   0.19928734
4218.00   5.72472470   0.20027549
4220.00   5.45406482   0.19998197
4222.00   5.69749593   0.19900308
4224.00   5.40936632   0.19125723
4226.00   5.47244183   0.18741255
4228.00   4.97403077   0.18975598
4230.00   5.11362383   0.19684298
4232.00   5.42166021   0.20119011
4234.00   5.47642344   0.19902948
4236.00   5.23788547   0.19826915
4238.00   5.03071192   0.19749653
4240.00   5.60739014   0.19793312
4242.00   5.30435681   0.19539961
4244.00   5.13193939   0.20534584
4246.00   5.86407123   0.21917400
4248.00   5.58366430   0.21310913
4250.00   5.43431384   0.19862087
4252.00   5.17518025   0.19240688
4254.00   5.57691403   0.19424385
4256.00   5.40751212   0.19548927
4258.00   5.17208869   0.19222897
4260.00   5.23873336   0.18961142
4262.00   4.88336774   0.18977499
4264.00   4.88768195   0.19135898
4266.00   5.29561378   0.19398687
4268.00   5.05334551   0.19009991
4270.00   5.07997880   0.18642884
4272.00   5.17562800   0.18438539
4274.00   5.40783742   0.18814755
4276.00   5.00985343   0.19151626
4278.00   4.95184994   0.19303858
4280.00   4.93994300   0.19073235
4282.00   4.89397576   0.18976318
4284.00   5.26185861   0.19009465
4286.00   5.17739831   0.18707706
4288.00   5.56101720   0.18663083
4290.00   5.34241726   0.18459895
4292.00   5.04773042   0.18581824
4294.00   5.38844769   0.18929291
4296.00   5.28171407   0.18594563
4298.00   4.97607343   0.17896502
4300.00   5.20688937   0.17667822
4302.00   5.45806104   0.17783645
4304.00   5.14377682   0.17807056
4306.00   4.94507145   0.17741139
4308.00   5.33551752   0.17755799
4310.00   5.11156482   0.17906078
4312.00   5.23330064   0.19274749
4314.00   4.87329996   0.20150457
4316.00   5.02130575   0.20249287
4318.00   5.06279602   0.20312461
4320.00   5.42688551   0.20654254
4322.00   5.28329373   0.20228349
4324.00   5.10292724   0.19487467
4326.00   5.51321145   0.19503058
4328.00   5.09198880   0.19359262
4330.00   5.53301342   0.19502409
4332.00   5.35706757   0.19381451
4334.00   5.19592457   0.19355215
4336.00   5.04984063   0.19261738
4338.00   5.24856365   0.19048040
4340.00   5.22420506   0.18936949
4342.00   4.62463996   0.18874050
4344.00   4.99067428   0.19654236
4346.00   4.26977873   0.20385751
4348.00   5.17799836   0.20998147
4350.00   5.53186212   0.20847117
4352.00   5.09463075   0.19852330
4354.00   5.10958970   0.22241896
4356.00   4.93528366   0.35223136
4358.00   5.12140338   0.42693290
4360.00   5.83225338   0.38595557
4362.00   4.77428260   0.28034403
4364.00   4.75548094   0.22337102
4366.00   4.47082211   0.20911547
4368.00   5.04386515   0.20610580
4370.00   4.69562783   0.20227101
4372.00   4.68916298   0.20541398
4374.00   4.44873356   0.20666229
4376.00   4.92671950   0.20526818
4378.00   4.53204223   0.19917937
4380.00   4.19577666   0.19419388
4382.00   4.18203623   0.18799596
4384.00   4.27641734   0.18471553
4386.00   4.22319477   0.18600779
4388.00   4.21590033   0.18774944
4390.00   4.15649290   0.18916726
4392.00   3.97386401   0.18923847
4394.00   3.79772610   0.18651802
4396.00   3.76248018   0.18808101
4398.00   4.01864008   0.19300789
4400.00   3.71717966   0.19453551
4402.00   3.56655065   0.19079043
4404.00   3.86789571   0.18559370
4406.00   3.91666690   0.18447593
4408.00   3.97782176   0.18743161
4410.00   3.70613467   0.18846112
4412.00   3.38078423   0.18973198
4414.00   3.59767345   0.19197772
4416.00   3.62656750   0.19134714
4418.00   3.52719565   0.19040463
4420.00   3.71265692   0.19037182
4422.00   3.70313571   0.18894920
4424.00   3.09846536   0.18569249
4426.00   3.90686244   0.18854690
4428.00   3.85435911   0.18768433
4430.00   3.90532777   0.18817149
4432.00   3.63081744   0.18614970
4434.00   3.48267428   0.18406876
4436.00   3.51960020   0.18426580
4438.00   3.68279317   0.18659260
4440.00   3.05924512   0.18444990
4442.00   3.36741768   0.18359388
4444.00   3.39651372   0.18344246
4446.00   3.54586113   0.18455783
4448.00   3.43607659   0.18415553
4450.00   3.55507937   0.18431265
4452.00   3.83901537   0.18403663
4454.00   3.27709336   0.18030590
4456.00   3.76303240   0.18154954
4458.00   3.52199007   0.18065009
4460.00   3.35333724   0.18119995
4462.00   3.41804732   0.18141536
4464.00   3.48037887   0.18276561
4466.00   3.59430692   0.18309950
4468.00   3.39829634   0.18132439
4470.00   3.77186924   0.18218908
4472.00   3.34606351   0.18272882
4474.00   3.10652512   0.18201404
4476.00   3.64258559   0.18437018
4478.00   3.10978586   0.18161507
4480.00   3.16616699   0.17910700
4482.00   3.12054640   0.17860254
4484.00   3.44341340   0.18230370
4486.00   3.26186794   0.18312391
4488.00   3.41838352   0.18316574
4490.00   3.05817095   0.18137407
4492.00   3.32571127   0.18329772
4494.00   3.21174520   0.18331143
4496.00   3.74562324   0.18506968
4498.00   3.45744983   0.18523619
4500.00   3.23219778   0.18390091
4502.00   3.37120070   0.18357217
4504.00   3.76282084   0.18475527
4506.00   3.52167283   0.18372542
4508.00   3.34078221   0.18224993
4510.00   3.34332536   0.18076543
4512.00   3.23050035   0.18016648
4514.00   3.19488990   0.17903678
4516.00   3.60698865   0.17930888
4518.00   3.72931733   0.17918760
4520.00   3.23543150   0.17768035
4522.00   3.47515782   0.17728735
4524.00   3.24247908   0.17462272
4526.00   3.31693207   0.17291778
4528.00   3.34148064   0.17125294
4530.00   3.68657728   0.17236677
4532.00   3.53803255   0.17246120
4534.00   3.53067591   0.17220142
4536.00   3.46442169   0.17226883
4538.00   3.09352941   0.17148937
4540.00   3.35271638   0.17343014
4542.00   3.19564422   0.17346018
4544.00   3.53366386   0.17550962
4546.00   3.63083901   0.17391098
4548.00   3.19153503   0.17073273
4550.00   3.03017730   0.16813394
4552.00   3.08212372   0.16727326
4554.00   3.29258656   0.16836959
4556.00   3.59991025   0.16997976
4558.00   3.12517143   0.16960446
4560.00   3.51428514   0.17056117
4562.00   3.38309783   0.16837696
4564.00   3.46316133   0.16744049
4566.00   3.78794637   0.16808233
4568.00   3.52192644   0.16642414
4570.00   3.41937576   0.16663757
4572.00   3.91369431   0.16892406
4574.00   3.59454234   0.16864627
4576.00   3.68894557   0.16748967
4578.00   3.80973370   0.16629467
4580.00   4.04278699   0.16385845
4582.00   3.98844547   0.16165042
4584.00   3.83459439   0.16101335
4586.00   4.31080143   0.16270807
4588.00   4.24583675   0.16394414
4590.00   4.30010397   0.16418511
4592.00   4.24973753   0.16428623
4594.00   4.34304109   0.16422172
4596.00   4.28731754   0.16306750
4598.00   4.24058105   0.16249877
4600.00   4.20417206   0.16086375
4602.00   4.34259541   0.16053264
4604.00   4.60987024   0.16186949
4606.00   4.55026922   0.16245476
4608.00   4.42178433   0.16288699
4610.00   4.41491793   0.16294861
4612.00   4.47542252   0.16227905
4614.00   4.39572898   0.16087211
4616.00   4.26452054   0.15945233
4618.00   4.27836196   0.15925707
4620.00   4.36880154   0.15967832
4622.00   4.53256384   0.15967442
4624.00   4.48530008   0.15973675
4626.00   4.48110853   0.15956987
4628.00   4.62278620   0.16013105
