# File created by shivutils (I.Shivvers)
# wl(A)   flm    er(optional)
3446.00   6.21413000   0.14891413
3448.00   6.16658989   0.15096078
3450.00   6.01401072   0.15208485
3452.00   5.84998290   0.15046254
3454.00   5.93166257   0.15253260
3456.00   5.79581455   0.15115640
3458.00   5.76528426   0.14955394
3460.00   5.79306429   0.15077504
3462.00   5.79984088   0.15218376
3464.00   5.82372965   0.15448984
3466.00   6.18553527   0.15729539
3468.00   6.15082865   0.15829394
3470.00   6.12422303   0.15947290
3472.00   6.49674886   0.16037731
3474.00   6.49523700   0.15869530
3476.00   6.42806691   0.15902991
3478.00   6.71887326   0.16461839
3480.00   6.81161271   0.16772188
3482.00   7.19266134   0.16908655
3484.00   7.27229620   0.16890495
3486.00   7.13256593   0.16989025
3488.00   7.30937819   0.17087083
3490.00   7.51148730   0.17035256
3492.00   7.67003167   0.17003028
3494.00   7.77576054   0.17166724
3496.00   7.97347222   0.17244677
3498.00   8.19763099   0.17663785
3500.00   8.35717798   0.17928190
3502.00   8.59661291   0.18087663
3504.00   8.64366819   0.17968251
3506.00   8.92650695   0.18163876
3508.00   8.75006460   0.18035084
3510.00   8.72293646   0.17934428
3512.00   8.80233531   0.17988363
3514.00   8.61285662   0.17730569
3516.00   8.78525582   0.18114041
3518.00   9.13110114   0.18276611
3520.00   9.04011786   0.18020672
3522.00   9.23652646   0.17960415
3524.00   9.03604414   0.17772393
3526.00   9.38958525   0.17943948
3528.00   9.79920065   0.18386033
3530.00   9.57283238   0.18289658
3532.00   10.46644564   0.18801038
3534.00   9.89676146   0.18356216
3536.00   10.59592561   0.18819592
3538.00   10.33739174   0.18691810
3540.00   10.65658903   0.18927342
3542.00   10.72748806   0.19032853
3544.00   10.54183759   0.18927559
3546.00   10.47591679   0.18881324
3548.00   10.79075481   0.19046771
3550.00   10.43400705   0.18711251
3552.00   11.11360995   0.18984119
3554.00   10.79322213   0.18627970
3556.00   11.26877823   0.18841477
3558.00   11.25868054   0.18897146
3560.00   11.70543740   0.19044227
3562.00   11.80850109   0.18987774
3564.00   11.79819534   0.18652511
3566.00   11.94543182   0.18501261
3568.00   11.60003673   0.18260259
3570.00   11.50167781   0.18133566
3572.00   11.97481637   0.18460094
3574.00   11.88450726   0.18413586
3576.00   12.32888023   0.18522123
3578.00   11.92011886   0.18162910
3580.00   11.84982552   0.17837189
3582.00   11.51880209   0.17512834
3584.00   11.63753792   0.17422900
3586.00   11.20227070   0.17160332
3588.00   11.19081755   0.17192536
3590.00   11.09260365   0.17339820
3592.00   10.88406915   0.17137453
3594.00   11.00180734   0.17109693
3596.00   10.87424634   0.16965535
3598.00   10.56275858   0.16859011
3600.00   10.47388076   0.16680453
3602.00   10.36774075   0.16442657
3604.00   10.76954378   0.16473798
3606.00   11.07451918   0.16718013
3608.00   11.25721797   0.16529764
3610.00   11.20107306   0.16551866
3612.00   11.22967798   0.16565509
3614.00   11.49207491   0.16759132
3616.00   11.12111236   0.16378427
3618.00   11.82836093   0.16503768
3620.00   11.80105081   0.16520752
3622.00   11.97572064   0.16558319
3624.00   12.41670638   0.16780737
3626.00   12.61597210   0.16949511
3628.00   13.02521498   0.17031493
3630.00   13.19797248   0.16955216
3632.00   13.81860533   0.17067111
3634.00   14.17318010   0.17218892
3636.00   14.49808500   0.17401222
3638.00   14.57389639   0.17394710
3640.00   15.07017869   0.17731060
3642.00   15.24227409   0.17645007
3644.00   15.50627056   0.17717499
3646.00   16.03891517   0.17833925
3648.00   16.30259647   0.18411114
3650.00   16.81091771   0.18930181
3652.00   16.96770117   0.18719834
3654.00   17.20223157   0.18593975
3656.00   17.40972862   0.18394653
3658.00   17.59480752   0.18200436
3660.00   18.02234720   0.18412041
3662.00   18.33109324   0.18532432
3664.00   18.34111748   0.18359638
3666.00   18.74951201   0.18209725
3668.00   19.13245284   0.18209153
3670.00   19.14954536   0.18137090
3672.00   18.64908815   0.17938267
3674.00   18.63718144   0.17868928
3676.00   18.69567423   0.17744467
3678.00   18.07895847   0.17363526
3680.00   17.46845364   0.17041957
3682.00   16.94735270   0.16789041
3684.00   16.36341439   0.16521594
3686.00   15.76950730   0.16137053
3688.00   15.55770501   0.15974868
3690.00   14.98735683   0.15775212
3692.00   14.78285601   0.15672740
3694.00   14.14808752   0.15312517
3696.00   14.12098735   0.15219821
3698.00   13.78446767   0.15147103
3700.00   13.50981806   0.15024121
3702.00   13.74585700   0.14932266
3704.00   13.50200048   0.14638830
3706.00   13.77213158   0.14653598
3708.00   13.59638354   0.14556589
3710.00   13.46682727   0.14564530
3712.00   12.96213828   0.14509596
3714.00   13.25486620   0.14567484
3716.00   13.16800262   0.14430575
3718.00   13.15586463   0.14137833
3720.00   12.92193944   0.13880474
3722.00   13.02321023   0.13893653
3724.00   12.98934414   0.13999950
3726.00   13.13202372   0.14004729
3728.00   12.70929449   0.13830661
3730.00   12.73712500   0.13794640
3732.00   12.50601737   0.13527829
3734.00   12.55350345   0.13344282
3736.00   12.10560677   0.13153725
3738.00   12.22192457   0.13271652
3740.00   12.13808375   0.13376329
3742.00   11.89077555   0.13200859
3744.00   12.06047426   0.13419350
3746.00   11.90195524   0.12815122
3748.00   11.61015244   0.12573013
3750.00   11.29210966   0.12482452
3752.00   10.74190806   0.12429235
3754.00   10.92757511   0.12579506
3756.00   10.81022271   0.12356345
3758.00   10.59964981   0.12118334
3760.00   10.40802869   0.12051048
3762.00   10.20070509   0.11945063
3764.00   10.13976727   0.11876974
3766.00   10.23100339   0.11856103
3768.00   10.24445324   0.11840909
3770.00   10.29840003   0.11885834
3772.00   9.87475184   0.11789903
3774.00   9.83936631   0.11813124
3776.00   9.78949016   0.11681236
3778.00   9.86152853   0.11708239
3780.00   9.69962205   0.11614421
3782.00   9.73096230   0.11649576
3784.00   9.60970229   0.11529843
3786.00   9.46559829   0.11367849
3788.00   9.33458134   0.11254856
3790.00   9.38559802   0.11294398
3792.00   9.21692586   0.11148767
3794.00   9.13117934   0.11055802
3796.00   9.13807939   0.10973674
3798.00   9.42809663   0.11030350
3800.00   9.39880118   0.11105160
3802.00   9.28125873   0.11141202
3804.00   9.53184516   0.11193660
3806.00   9.21033814   0.10983730
3808.00   9.36167488   0.11054996
3810.00   9.68970682   0.11184180
3812.00   9.71795748   0.11183998
3814.00   9.98400230   0.11038866
3816.00   10.37724840   0.11230270
3818.00   10.26602826   0.11133991
3820.00   10.63428320   0.11215660
3822.00   10.57233352   0.11171383
3824.00   10.85751116   0.11237367
3826.00   11.03325067   0.11211375
3828.00   11.42589297   0.11397150
3830.00   11.35083041   0.11350620
3832.00   11.54715204   0.11325371
3834.00   12.09448632   0.11504234
3836.00   12.10907741   0.11608335
3838.00   12.33406320   0.11530159
3840.00   12.84896600   0.11707126
3842.00   12.93197363   0.11845737
3844.00   13.43830244   0.12019503
3846.00   13.65300144   0.12062134
3848.00   13.64822795   0.12034502
3850.00   14.15626482   0.12164551
3852.00   14.57747792   0.12250273
3854.00   14.72331392   0.12263421
3856.00   14.92944841   0.12278086
3858.00   15.31070296   0.12347156
3860.00   15.61686320   0.12453462
3862.00   16.10082789   0.12706081
3864.00   16.11061847   0.12717058
3866.00   16.62542506   0.12810395
3868.00   17.11174095   0.12892741
3870.00   17.61368063   0.12964852
3872.00   17.73360840   0.13021262
3874.00   18.58356925   0.13361609
3876.00   18.65281377   0.13332582
3878.00   19.35063574   0.13446824
3880.00   19.65973154   0.13492409
3882.00   20.07060998   0.13615225
3884.00   20.59978206   0.13780529
3886.00   21.03297060   0.13820300
3888.00   21.27399583   0.13846781
3890.00   21.27801291   0.13889391
3892.00   21.76614777   0.14054346
3894.00   22.27482399   0.14180498
3896.00   22.60947635   0.14260951
3898.00   22.67392226   0.14233477
3900.00   23.08850878   0.14331453
3902.00   23.50176069   0.14408663
3904.00   23.73254510   0.14479411
3906.00   23.90731682   0.14628309
3908.00   24.72636752   0.14891250
3910.00   25.07330906   0.15029811
3912.00   24.92998209   0.14982290
3914.00   25.81484363   0.15099263
3916.00   25.93193537   0.14978362
3918.00   26.16546387   0.14956487
3920.00   26.23515152   0.14876137
3922.00   26.44155188   0.14886979
3924.00   27.05047897   0.14990220
3926.00   27.12721406   0.14984874
3928.00   27.11338269   0.14853256
3930.00   26.83310129   0.14752545
3932.00   25.70601925   0.14563800
3934.00   26.79959776   0.14803170
3936.00   27.81171130   0.14889259
3938.00   27.98484699   0.14911673
3940.00   27.81583455   0.14916249
3942.00   27.96592270   0.14957201
3944.00   27.48820687   0.14846815
3946.00   27.39805180   0.14776760
3948.00   26.98064820   0.14643173
3950.00   26.74306754   0.14558562
3952.00   26.05091622   0.14359877
3954.00   25.75229063   0.14262081
3956.00   25.56882027   0.14185627
3958.00   25.21598011   0.14107280
3960.00   24.43253153   0.13910894
3962.00   24.31481515   0.13776150
3964.00   23.85593356   0.13532648
3966.00   22.76332946   0.13240344
3968.00   22.37811753   0.13108796
3970.00   22.61052659   0.13158374
3972.00   22.10059729   0.13001721
3974.00   21.83881268   0.12987264
3976.00   21.43955043   0.12874676
3978.00   20.83594281   0.12733915
3980.00   20.56100741   0.12659255
3982.00   20.14877162   0.12488337
3984.00   19.90765824   0.12392621
3986.00   19.33006215   0.12235504
3988.00   18.93666012   0.12131820
3990.00   18.95140145   0.12156601
3992.00   18.80273510   0.12105871
3994.00   18.48896913   0.12067160
3996.00   18.36328539   0.12033554
3998.00   18.26906157   0.11970742
4000.00   18.04671087   0.11913991
4002.00   18.01797087   0.11847763
4004.00   17.75160473   0.11743210
4006.00   17.78741491   0.11718155
4008.00   17.77319870   0.11743750
4010.00   17.70305276   0.11745479
4012.00   17.78516086   0.11725612
4014.00   17.84594561   0.11706840
4016.00   17.95568233   0.11733460
4018.00   18.08653956   0.11828847
4020.00   18.05120094   0.11917275
4022.00   18.26636819   0.11937412
4024.00   18.29143327   0.11898536
4026.00   18.64792748   0.11920250
4028.00   18.81495745   0.11876613
4030.00   18.78209516   0.11795464
4032.00   19.34777032   0.11891423
4034.00   19.30132926   0.11864576
4036.00   19.47140191   0.11904719
4038.00   19.75182312   0.11952857
4040.00   19.47606213   0.11869058
4042.00   19.52185768   0.11893859
4044.00   19.52303778   0.12453068
4046.00   19.32899295   0.12891203
4048.00   19.55080289   0.12561246
4050.00   19.42310445   0.11865833
4052.00   19.21718086   0.11693661
4054.00   19.41850157   0.11710928
4056.00   19.36264624   0.11647166
4058.00   19.74173680   0.11662574
4060.00   19.86476412   0.11659707
4062.00   19.90150085   0.11611235
4064.00   19.89013206   0.11576097
4066.00   20.13260279   0.11651167
4068.00   20.42501887   0.11726903
4070.00   20.37082232   0.11660522
4072.00   20.67720530   0.11704745
4074.00   20.68936652   0.11714411
4076.00   20.71884538   0.11805619
4078.00   20.68480820   0.11794761
4080.00   20.99378362   0.11828318
4082.00   20.84957038   0.11751429
4084.00   20.75352617   0.11713286
4086.00   20.99875806   0.11729415
4088.00   20.69336844   0.11645835
4090.00   20.76722294   0.11590103
4092.00   20.71625863   0.11544754
4094.00   20.77839836   0.11518576
4096.00   20.74034030   0.11456024
4098.00   20.97688683   0.11481533
4100.00   20.72954308   0.11363591
4102.00   20.64713781   0.11330484
4104.00   20.98651912   0.11439579
4106.00   20.81717112   0.11409117
4108.00   20.94456151   0.11441816
4110.00   20.96187157   0.11408807
4112.00   20.82990580   0.11375581
4114.00   21.23327898   0.11460092
4116.00   21.31428044   0.11444858
4118.00   21.48744647   0.11403903
4120.00   21.58003663   0.11411615
4122.00   21.92734121   0.11467141
4124.00   21.92808055   0.11456816
4126.00   22.12455668   0.11480966
4128.00   22.31277209   0.11495407
4130.00   22.49913631   0.11527817
4132.00   22.53332136   0.11514020
4134.00   22.65913448   0.11538313
4136.00   22.75285262   0.11521865
4138.00   23.02968945   0.11579398
4140.00   23.02044294   0.11552623
4142.00   22.98682756   0.11473951
4144.00   23.16418888   0.11440647
4146.00   23.24663300   0.11450745
4148.00   23.23202248   0.11439312
4150.00   23.23298078   0.11457296
4152.00   23.38536090   0.11477094
4154.00   23.12877254   0.11383433
4156.00   23.42185971   0.11378435
4158.00   23.33791510   0.11360522
4160.00   23.41357056   0.11361086
4162.00   23.05035403   0.11304735
4164.00   23.08396372   0.11345865
4166.00   22.91234178   0.11263960
4168.00   22.74310563   0.11148055
4170.00   22.95601978   0.11122993
4172.00   22.80059889   0.11062890
4174.00   22.82334785   0.11035368
4176.00   22.87856716   0.11046249
4178.00   22.75638913   0.11047220
4180.00   22.87887143   0.11049422
4182.00   23.28851099   0.11105207
4184.00   23.06899680   0.11045564
4186.00   23.00449687   0.11031306
4188.00   22.98366735   0.11005615
4190.00   23.11173452   0.11052371
4192.00   22.98659059   0.11017665
4194.00   23.16632349   0.11025251
4196.00   23.18780704   0.10983327
4198.00   23.10892123   0.10951452
4200.00   23.23621682   0.10956182
4202.00   23.24818088   0.10950375
4204.00   23.11517530   0.10946396
4206.00   23.15395090   0.10948076
4208.00   23.27561992   0.10956706
4210.00   23.37318073   0.10959691
4212.00   23.21080908   0.10904862
4214.00   23.12038386   0.10833529
4216.00   22.88887623   0.10754057
4218.00   22.95206146   0.10734948
4220.00   22.54702666   0.10658741
4222.00   22.35753162   0.10596918
4224.00   22.41899836   0.10531061
4226.00   22.44589048   0.10495641
4228.00   22.34342632   0.10493915
4230.00   22.16152090   0.10495590
4232.00   21.79293277   0.10418684
4234.00   21.58159778   0.10355710
4236.00   21.47363027   0.10342427
4238.00   21.64594321   0.10349528
4240.00   21.33231658   0.10240672
4242.00   20.96450002   0.10147282
4244.00   20.82894940   0.10167267
4246.00   20.97389155   0.10225127
4248.00   20.93744108   0.10160888
4250.00   20.88835830   0.10055309
4252.00   20.98925847   0.10052232
4254.00   20.94250557   0.10040984
4256.00   20.75119345   0.09987284
4258.00   20.83381862   0.09974432
4260.00   20.70677706   0.09921809
4262.00   20.46907223   0.09883930
4264.00   20.65864784   0.09923072
4266.00   20.52154176   0.09871874
4268.00   20.51447915   0.09825883
4270.00   20.53918168   0.09787777
4272.00   20.55153152   0.09757052
4274.00   20.11186806   0.09692227
4276.00   19.97945206   0.09682362
4278.00   19.74125623   0.09651814
4280.00   19.69245782   0.09609738
4282.00   19.29497472   0.09531376
4284.00   18.95496213   0.09441507
4286.00   18.89764850   0.09380789
4288.00   18.63880420   0.09299787
4290.00   18.40647998   0.09241640
4292.00   18.18135058   0.09287529
4294.00   18.17780980   0.09179236
4296.00   17.95654252   0.09119369
4298.00   17.82390376   0.09051832
4300.00   17.73647477   0.09000054
4302.00   17.66373213   0.08974451
4304.00   17.39317970   0.08900312
4306.00   16.93999436   0.08808186
4308.00   16.89459691   0.08767730
4310.00   16.79069720   0.08764705
4312.00   16.44696374   0.08771963
4314.00   16.36517317   0.08806061
4316.00   16.18720806   0.08747469
4318.00   15.74860006   0.08650629
4320.00   15.57674778   0.08613351
4322.00   15.53489206   0.08533178
4324.00   15.34049794   0.08425300
4326.00   15.35313119   0.08423126
4328.00   15.17869691   0.08392367
4330.00   15.02600210   0.08384418
4332.00   14.95205471   0.08382383
4334.00   14.78793708   0.08360662
4336.00   14.77009479   0.08335992
4338.00   14.39738721   0.08203905
4340.00   14.35718837   0.08163033
4342.00   14.08839235   0.08119645
4344.00   14.01861798   0.08140883
4346.00   13.83194902   0.08170403
4348.00   13.53046938   0.08117277
4350.00   13.50400855   0.08064524
4352.00   13.27168148   0.07977928
4354.00   13.13116921   0.08155424
4356.00   13.04396249   0.09237425
4358.00   12.70709969   0.09742927
4360.00   12.77869683   0.09066625
4362.00   12.42488842   0.08107547
4364.00   12.34756186   0.07837998
4366.00   12.45729099   0.07810576
4368.00   12.08662276   0.07671591
4370.00   11.98233300   0.07646134
4372.00   12.01361282   0.07668094
4374.00   11.81590588   0.07629448
4376.00   11.97601163   0.07624915
4378.00   11.81475232   0.07556163
4380.00   11.71927256   0.07504890
4382.00   11.66837319   0.07440844
4384.00   11.65584894   0.07394277
4386.00   11.57680531   0.07390023
4388.00   11.53628420   0.07401761
4390.00   11.52733485   0.07392728
4392.00   11.63288007   0.07428810
4394.00   11.78299524   0.07445279
4396.00   11.67902491   0.07416192
4398.00   11.79611333   0.07467025
4400.00   12.02468066   0.07505400
4402.00   12.08712277   0.07473006
4404.00   12.09425125   0.07446170
4406.00   12.24200432   0.07473226
4408.00   12.22260751   0.07529556
4410.00   12.57598559   0.07612322
4412.00   12.56591254   0.07622306
4414.00   12.73131501   0.07675670
4416.00   12.71584240   0.07673558
4418.00   12.83005260   0.07695669
4420.00   12.74217480   0.07665094
4422.00   13.05259430   0.07694738
4424.00   13.15416367   0.07713801
4426.00   13.08527176   0.07706905
4428.00   13.40115197   0.07777397
4430.00   13.20898724   0.07752153
4432.00   13.59302143   0.07821856
4434.00   13.65301471   0.07823932
4436.00   14.01013167   0.07915462
4438.00   14.24837489   0.07978782
4440.00   14.44194815   0.08006934
4442.00   14.63248159   0.08035921
4444.00   14.73734103   0.08040130
4446.00   14.98353690   0.08089106
4448.00   15.20405726   0.08126168
4450.00   15.33114385   0.08155193
4452.00   15.57993311   0.08176752
4454.00   15.46667647   0.08124583
4456.00   15.72079372   0.08167261
4458.00   15.78102538   0.08185859
4460.00   15.95225965   0.08223937
4462.00   16.21634758   0.08279051
4464.00   16.26780715   0.08300944
4466.00   16.42454227   0.08348311
4468.00   16.69055960   0.08378644
4470.00   16.98296098   0.08431269
4472.00   17.21979282   0.08481625
4474.00   17.45052604   0.08521963
4476.00   17.60305165   0.08551118
4478.00   18.02562590   0.08626618
4480.00   18.13486403   0.08627255
4482.00   18.59175698   0.08720290
4484.00   18.86716489   0.08791343
4486.00   19.15210178   0.08852065
4488.00   19.34698832   0.08874243
4490.00   19.78920156   0.08954512
4492.00   19.90402030   0.08994239
4494.00   20.29819437   0.09058231
4496.00   20.41960556   0.09079387
4498.00   20.65388099   0.09131907
4500.00   21.04729296   0.09191115
4502.00   21.30910411   0.09221607
4504.00   21.85673033   0.09319643
4506.00   22.10168450   0.09362897
4508.00   22.27545717   0.09386724
4510.00   22.17179395   0.09360395
4512.00   22.89506110   0.09461275
4514.00   22.79528322   0.09458058
4516.00   23.19321560   0.09514177
4518.00   23.23363292   0.09534084
4520.00   23.40490699   0.09558167
4522.00   23.63498997   0.09597177
4524.00   23.82318453   0.09623904
4526.00   23.90979930   0.09628182
4528.00   24.14897144   0.09642722
4530.00   24.16833365   0.09651294
4532.00   24.21196046   0.09645284
4534.00   24.27799785   0.09641529
4536.00   24.47036021   0.09679296
4538.00   24.75772033   0.09728395
4540.00   24.83825828   0.09750167
4542.00   24.84077962   0.09749380
4544.00   25.12433782   0.09781301
4546.00   25.30742430   0.09782117
4548.00   25.43228860   0.09780906
4550.00   25.39467130   0.09782580
4552.00   25.64097428   0.09803852
4554.00   25.97812524   0.09860166
4556.00   25.79006338   0.09836904
4558.00   26.05033139   0.09882583
4560.00   25.79089751   0.09856593
4562.00   26.04331712   0.09882162
4564.00   26.08329273   0.09881253
4566.00   26.13210252   0.09889857
4568.00   26.25791185   0.09899376
4570.00   26.29787988   0.09917835
4572.00   26.21945758   0.09909782
4574.00   26.09365014   0.09895303
4576.00   26.18195213   0.09897166
4578.00   26.16538899   0.09883174
4580.00   25.87807152   0.09815280
4582.00   25.75734848   0.09779385
4584.00   25.84973106   0.09771197
4586.00   25.77529646   0.09776733
