# File created by shivutils (I.Shivvers)
# wl(A)   flm    er(optional)
3446.00   7.16622925   0.26259363
3448.00   7.05433655   0.26108006
3450.00   7.24827623   0.26132566
3452.00   7.33403778   0.26531196
3454.00   7.26918936   0.26514992
3456.00   6.93143606   0.25997522
3458.00   7.13743162   0.26337054
3460.00   6.91517258   0.26109684
3462.00   7.47206879   0.26908451
3464.00   7.73514128   0.27495748
3466.00   7.47794008   0.27314800
3468.00   7.32823658   0.27425578
3470.00   7.34621763   0.27282086
3472.00   7.88575077   0.27971616
3474.00   7.59554577   0.27044657
3476.00   7.83010435   0.27671570
3478.00   8.28739738   0.28715080
3480.00   8.36598110   0.28800681
3482.00   8.50572872   0.29332188
3484.00   8.86027050   0.29512122
3486.00   9.18659115   0.30172068
3488.00   8.73888683   0.29436988
3490.00   9.27483082   0.29977879
3492.00   9.42476082   0.30139211
3494.00   9.97293854   0.30686694
3496.00   10.37752533   0.30989462
3498.00   10.19592381   0.31275731
3500.00   10.64808273   0.31851545
3502.00   10.28209782   0.31531969
3504.00   10.76863480   0.31860167
3506.00   11.30214596   0.32416919
3508.00   11.27340031   0.32352275
3510.00   11.22833920   0.32289651
3512.00   10.98552704   0.31755918
3514.00   11.11980343   0.32032090
3516.00   11.37475586   0.32252449
3518.00   10.85714626   0.31603137
3520.00   10.40936279   0.31259075
3522.00   10.84325790   0.31387451
3524.00   11.02003670   0.31218666
3526.00   11.45917892   0.31761131
3528.00   11.97701073   0.32449383
3530.00   12.46569633   0.33050686
3532.00   12.48501778   0.32746419
3534.00   12.43889809   0.32773888
3536.00   12.80502415   0.33278525
3538.00   13.33686829   0.33358231
3540.00   12.80553532   0.33169881
3542.00   12.83978367   0.33112133
3544.00   13.03909588   0.33343101
3546.00   13.41845036   0.33636123
3548.00   12.44421864   0.32497326
3550.00   13.43760967   0.33219710
3552.00   13.40823078   0.33139670
3554.00   13.34678841   0.32773069
3556.00   13.38757038   0.32861349
3558.00   13.38980961   0.32525143
3560.00   13.71682262   0.32861716
3562.00   13.54396057   0.32623276
3564.00   14.08044338   0.32735306
3566.00   14.13788795   0.32454467
3568.00   14.01140499   0.32158938
3570.00   14.47889709   0.32406291
3572.00   14.17342377   0.32064971
3574.00   14.52600861   0.32409573
3576.00   14.61074448   0.32469526
3578.00   13.64537430   0.31335202
3580.00   14.41573429   0.31650141
3582.00   13.95737648   0.30997545
3584.00   13.36951351   0.30373600
3586.00   13.21909046   0.30046716
3588.00   13.68420982   0.30477193
3590.00   13.21843052   0.30171442
3592.00   13.74995422   0.30586568
3594.00   13.37312984   0.29964349
3596.00   13.73032475   0.30386657
3598.00   13.08087730   0.29593742
3600.00   13.35812855   0.29532748
3602.00   13.68428993   0.29604810
3604.00   13.22640610   0.29178485
3606.00   13.19152164   0.28980067
3608.00   13.13505459   0.28819948
3610.00   13.49131298   0.28945154
3612.00   13.34104729   0.28833270
3614.00   14.10243225   0.29505056
3616.00   14.34260845   0.29475898
3618.00   14.19640636   0.28956860
3620.00   15.08422375   0.29707476
3622.00   14.62896156   0.29288772
3624.00   14.83861446   0.29442039
3626.00   15.47070122   0.29922047
3628.00   14.95789623   0.29512367
3630.00   16.39087486   0.30118150
3632.00   16.04494476   0.29760316
3634.00   17.08396339   0.30378085
3636.00   17.67457008   0.30654335
3638.00   18.26255417   0.31075668
3640.00   18.45478821   0.31286207
3642.00   19.03931046   0.31480142
3644.00   18.42958641   0.30890864
3646.00   19.32094383   0.31455827
3648.00   19.69532776   0.32139868
3650.00   20.18115616   0.32656991
3652.00   20.39327049   0.32532617
3654.00   21.12931824   0.32693729
3656.00   20.94755363   0.32161635
3658.00   21.35989189   0.32107073
3660.00   21.85762978   0.32394025
3662.00   23.14506721   0.33135211
3664.00   23.42466927   0.33046573
3666.00   23.24170876   0.32510105
3668.00   24.09503365   0.32798922
3670.00   23.63145256   0.32440037
3672.00   23.79345703   0.32483932
3674.00   23.40125465   0.32045057
3676.00   23.59846306   0.31958467
3678.00   23.29603577   0.31575200
3680.00   22.76987267   0.31117499
3682.00   21.88545227   0.30474445
3684.00   21.65909958   0.30226371
3686.00   21.46269798   0.29915860
3688.00   19.97219849   0.28948870
3690.00   19.38940811   0.28577584
3692.00   19.06193161   0.28303844
3694.00   19.28322601   0.28281158
3696.00   19.26808167   0.28117639
3698.00   18.69174004   0.27671272
3700.00   17.75732803   0.27007225
3702.00   18.05658913   0.27082041
3704.00   17.60535431   0.26593575
3706.00   16.53702927   0.25723934
3708.00   17.20071602   0.26031137
3710.00   17.64890289   0.26372895
3712.00   17.57853889   0.26382869
3714.00   17.49153709   0.26270553
3716.00   17.30247307   0.25931013
3718.00   16.67401314   0.25323525
3720.00   16.58371735   0.24996348
3722.00   16.35060501   0.24815917
3724.00   17.09475517   0.25236434
3726.00   16.62936592   0.25031033
3728.00   16.56538010   0.24954066
3730.00   16.36408997   0.24702515
3732.00   16.46046066   0.24508883
3734.00   16.30496597   0.24153216
3736.00   16.11518097   0.23944151
3738.00   15.69917393   0.23826207
3740.00   15.70206165   0.23907559
3742.00   16.17546654   0.24061242
3744.00   16.36433792   0.23962055
3746.00   15.93899250   0.23433693
3748.00   15.08295345   0.22857302
3750.00   14.68020630   0.22560272
3752.00   14.38296509   0.22500178
3754.00   14.51654625   0.22665562
3756.00   14.21164036   0.22229220
3758.00   13.81063175   0.21821348
3760.00   13.54349899   0.21610612
3762.00   13.53018951   0.21558601
3764.00   13.74858284   0.21609804
3766.00   13.10809898   0.21150760
3768.00   13.77833557   0.21461004
3770.00   13.12716579   0.21060102
3772.00   13.31708145   0.21204965
3774.00   12.96064281   0.20954426
3776.00   12.31511307   0.20391916
3778.00   12.61714172   0.20704685
3780.00   12.68072224   0.20687962
3782.00   12.49098110   0.20537123
3784.00   12.02025223   0.20084585
3786.00   12.03781128   0.19927067
3788.00   11.70896912   0.19612244
3790.00   11.92284489   0.19694674
3792.00   11.78811073   0.19560863
3794.00   11.77832699   0.19413489
3796.00   11.86448479   0.19444743
3798.00   11.80322838   0.19352706
3800.00   11.84179688   0.19632007
3802.00   12.21705914   0.19705608
3804.00   12.26665306   0.19656812
3806.00   12.18024445   0.19438371
3808.00   12.04524994   0.19365987
3810.00   12.33506203   0.19476929
3812.00   12.36924839   0.19362316
3814.00   12.41028309   0.19231580
3816.00   12.98378944   0.19570319
3818.00   13.38874340   0.19749783
3820.00   13.48264790   0.19681965
3822.00   13.67764187   0.19833383
3824.00   13.92812538   0.19878122
3826.00   14.39459991   0.20034541
3828.00   14.28489304   0.20019895
3830.00   14.57604885   0.20153016
3832.00   15.15502930   0.20372738
3834.00   15.59245205   0.20535542
3836.00   15.65174675   0.20531160
3838.00   15.41319561   0.20378660
3840.00   16.41659355   0.20888144
3842.00   16.22196388   0.20864820
3844.00   16.96450806   0.21284033
3846.00   17.23191643   0.21371686
3848.00   17.65099525   0.21516082
3850.00   18.30497742   0.21829748
3852.00   18.74559021   0.22033893
3854.00   19.09150696   0.22131205
3856.00   19.15160370   0.22113553
3858.00   19.82763672   0.22268493
3860.00   20.00817108   0.22386859
3862.00   20.95477104   0.22943963
3864.00   21.07122803   0.22984792
3866.00   21.33984756   0.23016474
3868.00   21.60811424   0.23048583
3870.00   22.58729744   0.23560312
3872.00   23.07720184   0.23625022
3874.00   23.33855247   0.23784925
3876.00   24.02375031   0.24047323
3878.00   24.03742790   0.23938914
3880.00   25.60710335   0.24573535
3882.00   26.18612289   0.24782938
3884.00   27.22335434   0.25185508
3886.00   27.58061981   0.25239015
3888.00   27.28504181   0.25042745
3890.00   27.95288658   0.25395313
3892.00   28.28526306   0.25518695
3894.00   28.86912537   0.25721747
3896.00   28.55660248   0.25575167
3898.00   29.26209641   0.25805289
3900.00   29.53717041   0.25875726
3902.00   30.22984314   0.26082036
3904.00   30.11448860   0.26011550
3906.00   30.74332428   0.26312804
3908.00   31.62768555   0.26697004
3910.00   31.68123245   0.26729235
3912.00   32.18444061   0.26839560
3914.00   32.97492218   0.27019650
3916.00   33.56511307   0.27113485
3918.00   33.39592361   0.26915801
3920.00   34.23925018   0.27132091
3922.00   34.46297836   0.27087441
3924.00   34.38099670   0.27013716
3926.00   34.93430710   0.27074900
3928.00   35.18493652   0.27093065
3930.00   34.02418900   0.26541832
3932.00   32.89431381   0.26014528
3934.00   34.93244171   0.26698282
3936.00   35.84620667   0.27016798
3938.00   35.59763718   0.26915762
3940.00   35.96494293   0.27082705
3942.00   36.03473663   0.27044848
3944.00   36.29967117   0.27107090
3946.00   35.58236313   0.26838192
3948.00   35.55482864   0.26746774
3950.00   34.71102524   0.26400009
3952.00   33.66362381   0.25977778
3954.00   34.00206757   0.26051128
3956.00   33.65673065   0.25917080
3958.00   33.03286362   0.25622109
3960.00   32.52625656   0.25368178
3962.00   31.50269127   0.24920978
3964.00   30.87723732   0.24550357
3966.00   29.60256767   0.23877297
3968.00   29.21252251   0.23665401
3970.00   29.43858719   0.23735523
3972.00   28.80023956   0.23548424
3974.00   28.44937325   0.23457228
3976.00   27.91391945   0.23265435
3978.00   27.27679634   0.23015653
3980.00   27.02355766   0.22891180
3982.00   26.47820091   0.22559276
3984.00   25.53881264   0.22144394
3986.00   24.96232605   0.21921478
3988.00   24.86901283   0.21854836
3990.00   24.42894554   0.21670072
3992.00   24.56235313   0.21719258
3994.00   24.02166367   0.21471779
3996.00   23.75585365   0.21354844
3998.00   23.67714882   0.21267278
4000.00   23.38744164   0.21076329
4002.00   22.90570641   0.20841981
4004.00   22.95613670   0.20805295
4006.00   22.55252457   0.20613959
4008.00   22.59052467   0.20598954
4010.00   22.49919891   0.20550115
4012.00   23.11346626   0.20740278
4014.00   22.59526634   0.20492835
4016.00   22.63155937   0.20498611
4018.00   22.72154808   0.20577304
4020.00   23.02622414   0.20689268
4022.00   23.03983307   0.20743023
4024.00   23.13623619   0.20707180
4026.00   23.32193375   0.20629780
4028.00   23.50295067   0.20581882
4030.00   23.79617310   0.20640737
4032.00   24.05350876   0.20645420
4034.00   23.95868111   0.20560127
4036.00   24.18787384   0.20662950
4038.00   24.16219711   0.20639719
4040.00   24.23139191   0.20603138
4042.00   24.34920120   0.20629215
4044.00   24.41908455   0.21201403
4046.00   23.99660492   0.21467784
4048.00   24.29041672   0.21194272
4050.00   24.52718735   0.20627260
4052.00   24.27380943   0.20399101
4054.00   24.05453873   0.20279504
4056.00   24.61592674   0.20381619
4058.00   24.50477791   0.20282845
4060.00   24.00734901   0.20078622
4062.00   24.34897614   0.20093495
4064.00   24.60238457   0.20150594
4066.00   24.73211479   0.20217918
4068.00   25.05836868   0.20295729
4070.00   25.18832970   0.20305640
4072.00   25.00223541   0.20166175
4074.00   25.32575226   0.20277256
4076.00   25.32604408   0.20359279
4078.00   25.62339783   0.20452364
4080.00   25.47348022   0.20316134
4082.00   25.65245438   0.20321971
4084.00   25.26234055   0.20146810
4086.00   25.58301735   0.20231642
4088.00   25.15917397   0.20028342
4090.00   25.42207527   0.20043691
4092.00   24.93523407   0.19799739
4094.00   25.17618942   0.19828628
4096.00   25.33517456   0.19829018
4098.00   25.15498161   0.19751768
4100.00   24.84014130   0.19528855
4102.00   25.09698486   0.19573654
4104.00   25.22527885   0.19645858
4106.00   25.40835571   0.19686389
4108.00   25.40056229   0.19673967
4110.00   25.94994164   0.19789705
4112.00   25.21850777   0.19508201
4114.00   25.67418289   0.19657642
4116.00   26.26461220   0.19784966
4118.00   25.76807404   0.19582163
4120.00   26.29229355   0.19694208
4122.00   26.41539001   0.19691576
4124.00   26.88119507   0.19823763
4126.00   26.84975243   0.19768472
4128.00   27.26533890   0.19832931
4130.00   27.83008194   0.19991639
4132.00   27.47649956   0.19856861
4134.00   27.73034096   0.19892104
4136.00   27.95666313   0.19918500
4138.00   27.87845421   0.19892915
4140.00   28.43537140   0.20021689
4142.00   28.58924675   0.19988205
4144.00   28.66658974   0.19909264
4146.00   28.75309563   0.19920747
4148.00   28.98751259   0.19949088
4150.00   28.98948288   0.19941878
4152.00   29.29079628   0.19994010
4154.00   29.49216843   0.19992775
4156.00   29.19398689   0.19831370
4158.00   28.69434166   0.19653073
4160.00   28.97257996   0.19720687
4162.00   29.06778717   0.19765396
4164.00   29.02714729   0.19740243
4166.00   29.01358223   0.19701436
4168.00   28.71866608   0.19522980
4170.00   28.81634140   0.19477628
4172.00   29.13745499   0.19537576
4174.00   29.22873116   0.19531640
4176.00   28.95015907   0.19435136
4178.00   29.00021553   0.19414909
4180.00   28.98077583   0.19389842
4182.00   29.05870819   0.19386487
4184.00   29.40822029   0.19462597
4186.00   29.38828278   0.19396888
4188.00   29.06376457   0.19283146
4190.00   29.22806358   0.19334386
4192.00   29.12444496   0.19282888
4194.00   29.09387016   0.19213131
4196.00   29.16528320   0.19169143
4198.00   28.85743332   0.19046542
4200.00   28.87092018   0.19024323
4202.00   29.21699905   0.19101924
4204.00   29.27869987   0.19114234
4206.00   29.49716949   0.19191125
4208.00   29.61731339   0.19201109
4210.00   29.00939751   0.18982394
4212.00   29.12129402   0.18974951
4214.00   29.21536636   0.18937835
4216.00   28.78318214   0.18758304
4218.00   29.19574738   0.18849616
4220.00   29.23162842   0.18825942
4222.00   28.50370789   0.18561345
4224.00   28.20390511   0.18395770
4226.00   28.67497253   0.18470038
4228.00   28.02740479   0.18276259
4230.00   27.88492775   0.18245871
4232.00   27.47227669   0.18089765
4234.00   27.66247177   0.18086272
4236.00   27.53683090   0.18021353
4238.00   27.13892365   0.17877300
4240.00   27.04889679   0.17780766
4242.00   26.79689980   0.17662907
4244.00   26.80008316   0.17706768
4246.00   26.49023628   0.17663352
4248.00   26.77369118   0.17651156
4250.00   26.95685387   0.17586894
4252.00   26.97995758   0.17590612
4254.00   26.84346199   0.17557010
4256.00   27.10960579   0.17589925
4258.00   26.53180313   0.17424941
4260.00   26.70776558   0.17436409
4262.00   27.07812119   0.17550872
4264.00   26.97572136   0.17528701
4266.00   26.56965446   0.17402922
4268.00   26.72865295   0.17377028
4270.00   27.01864052   0.17416130
4272.00   26.63514519   0.17259587
4274.00   26.47765350   0.17215072
4276.00   26.16932297   0.17138594
4278.00   26.04260826   0.17087661
4280.00   25.92168808   0.17009789
4282.00   25.80091858   0.16939047
4284.00   25.30125046   0.16743235
4286.00   25.37446022   0.16708463
4288.00   24.74465942   0.16471832
4290.00   24.50120354   0.16354446
4292.00   24.33374596   0.16305977
4294.00   24.09051704   0.16245010
4296.00   24.31212997   0.16275400
4298.00   23.62848282   0.16013403
4300.00   23.89883232   0.16066554
4302.00   23.55964279   0.15960243
4304.00   23.38489532   0.15915555
4306.00   23.06136513   0.15802574
4308.00   23.06445885   0.15770042
4310.00   22.72046471   0.15670654
4312.00   21.99350929   0.15528077
4314.00   21.69106674   0.15510228
4316.00   21.45866776   0.15417543
4318.00   21.22583580   0.15326352
4320.00   21.27116585   0.15324079
4322.00   21.15342140   0.15211993
4324.00   20.52179718   0.14932534
4326.00   20.22090912   0.14829350
4328.00   20.11237335   0.14810997
4330.00   20.29053879   0.14890710
4332.00   20.02398682   0.14772522
4334.00   19.78050804   0.14688154
4336.00   19.20131874   0.14486043
4338.00   19.18342400   0.14424482
4340.00   18.86071014   0.14273727
4342.00   18.63327217   0.14178577
4344.00   18.37595558   0.14149979
4346.00   18.19116974   0.14126354
4348.00   18.02549744   0.14077510
4350.00   17.73787117   0.13893856
4352.00   17.31209373   0.13705984
4354.00   17.00450325   0.13739674
4356.00   16.44203186   0.14629951
4358.00   16.33829117   0.15090498
4360.00   16.38686180   0.14442164
4362.00   15.83531284   0.13391718
4364.00   15.70564175   0.13156259
4366.00   15.73542500   0.13091315
4368.00   15.51250076   0.12980579
4370.00   15.29344368   0.12864518
4372.00   15.14424801   0.12805140
4374.00   15.15669918   0.12817848
4376.00   14.86504745   0.12669626
4378.00   14.72386932   0.12585175
4380.00   14.72283459   0.12541372
4382.00   14.51902676   0.12402295
4384.00   14.56085682   0.12366702
4386.00   14.30201721   0.12294861
4388.00   14.24972820   0.12298710
4390.00   14.32429886   0.12301850
4392.00   14.49443054   0.12354430
4394.00   14.18160248   0.12226467
4396.00   14.44435310   0.12336899
4398.00   14.39151573   0.12324846
4400.00   14.67646027   0.12395235
4402.00   14.61940861   0.12347095
4404.00   14.82307434   0.12368402
4406.00   14.98098564   0.12437555
4408.00   14.99805832   0.12456726
4410.00   15.05111599   0.12492412
4412.00   15.05207348   0.12517428
4414.00   14.92895412   0.12474900
4416.00   15.43442535   0.12640716
4418.00   15.27803516   0.12586942
4420.00   15.92397785   0.12773025
4422.00   15.66239643   0.12664312
4424.00   15.55904579   0.12617314
4426.00   15.77139378   0.12687299
4428.00   15.90693188   0.12722261
4430.00   16.08059120   0.12777975
4432.00   16.20548630   0.12833269
4434.00   16.36184883   0.12871452
4436.00   16.72809601   0.13001791
4438.00   17.07515717   0.13139902
4440.00   17.17887878   0.13129427
4442.00   17.48999214   0.13221550
4444.00   17.87880707   0.13352244
4446.00   18.14240837   0.13420179
4448.00   18.46878624   0.13536713
4450.00   18.77311134   0.13607958
4452.00   18.57151222   0.13531020
4454.00   19.08707047   0.13644856
4456.00   19.04331398   0.13649511
4458.00   18.93390656   0.13598858
4460.00   19.28362274   0.13708903
4462.00   19.77454376   0.13847150
4464.00   19.69690704   0.13826805
4466.00   20.06030846   0.13923639
4468.00   20.09293365   0.13925977
4470.00   20.57771111   0.14070714
4472.00   20.98783684   0.14185181
4474.00   21.50745201   0.14327931
4476.00   21.42221451   0.14289348
4478.00   21.70801544   0.14349036
4480.00   22.54580879   0.14549913
4482.00   22.54112625   0.14578684
4484.00   23.28163147   0.14794978
4486.00   23.65737343   0.14902499
4488.00   24.19517899   0.15024109
4490.00   24.25952530   0.15046984
4492.00   24.64765930   0.15157630
4494.00   24.89768982   0.15236989
4496.00   25.16142654   0.15300865
4498.00   25.77083969   0.15444021
4500.00   25.97884941   0.15501022
4502.00   26.52249336   0.15627426
4504.00   26.56858635   0.15643227
4506.00   27.55369949   0.15896550
4508.00   28.01617813   0.16027592
4510.00   28.38846207   0.16091053
4512.00   28.84362602   0.16196080
4514.00   28.87461472   0.16204257
4516.00   29.42413902   0.16332346
4518.00   29.81998825   0.16433729
4520.00   29.93048477   0.16456412
4522.00   29.97136688   0.16480310
4524.00   30.34850121   0.16557954
4526.00   30.60831451   0.16575810
4528.00   31.05903816   0.16676888
4530.00   30.59498596   0.16575506
4532.00   31.35836411   0.16762803
4534.00   31.36725235   0.16752395
4536.00   31.61486435   0.16808930
4538.00   31.82540703   0.16872290
4540.00   31.86483574   0.16873060
4542.00   32.34241486   0.16986440
4544.00   32.32846832   0.16979761
4546.00   32.90562439   0.17084672
4548.00   33.19971085   0.17130750
4550.00   33.33678436   0.17159931
4552.00   33.37683868   0.17157777
4554.00   33.69678116   0.17230797
4556.00   33.84418488   0.17266560
4558.00   34.22847748   0.17350680
4560.00   34.32827377   0.17372210
4562.00   34.47023773   0.17401159
4564.00   34.64788437   0.17412333
4566.00   34.70861435   0.17420276
4568.00   34.95904160   0.17463131
4570.00   34.77531433   0.17419372
4572.00   34.46494293   0.17357010
4574.00   34.93835449   0.17455579
4576.00   35.00880432   0.17452489
4578.00   34.88719559   0.17418677
4580.00   35.15194321   0.17459373
4582.00   34.77287292   0.17370419
4584.00   34.95238495   0.17409690
