# File created by shivutils (I.Shivvers)
# wl(A)   flm    er(optional)
3436.00   27.62531662   0.42560762
3438.00   27.52624893   0.42404616
3440.00   28.07463837   0.43025452
3442.00   28.20619774   0.43254766
3444.00   28.42843819   0.43516925
3446.00   28.12004280   0.43573341
3448.00   28.50544357   0.44075203
3450.00   29.06805801   0.44575414
3452.00   28.30495071   0.44264522
3454.00   28.51609039   0.44406596
3456.00   28.44933128   0.44585064
3458.00   29.01824570   0.45140839
3460.00   30.09534645   0.45915988
3462.00   29.60506630   0.45762584
3464.00   29.86640739   0.46042392
3466.00   29.90531731   0.46259508
3468.00   30.04485512   0.46681228
3470.00   30.12687492   0.46786419
3472.00   30.31466293   0.46938503
3474.00   30.61889839   0.47274750
3476.00   31.05226707   0.47798750
3478.00   31.85596085   0.48526150
3480.00   31.91777992   0.48689631
3482.00   33.78887558   0.49838358
3484.00   35.20662689   0.50808668
3486.00   35.57067108   0.51042575
3488.00   36.18552017   0.51623732
3490.00   36.83300018   0.51955533
3492.00   37.41673660   0.52217388
3494.00   37.89275742   0.52434725
3496.00   38.07352448   0.52538264
3498.00   38.40837860   0.52641761
3500.00   39.65812302   0.53483099
3502.00   40.15802383   0.53697711
3504.00   40.11227417   0.53643048
3506.00   41.03626251   0.54028010
3508.00   42.07109833   0.54739022
3510.00   41.56022263   0.54310423
3512.00   41.43685913   0.54128242
3514.00   41.71971130   0.54322654
3516.00   41.77731705   0.54140556
3518.00   41.95108414   0.54109037
3520.00   42.49975967   0.54294872
3522.00   42.60147476   0.54303235
3524.00   42.98160172   0.54264170
3526.00   43.60508347   0.54507256
3528.00   44.20037842   0.54768032
3530.00   43.99570847   0.54543263
3532.00   44.02162552   0.54472786
3534.00   44.95562363   0.54869092
3536.00   44.63208008   0.54468900
3538.00   44.41421890   0.54269427
3540.00   45.02213287   0.54554284
3542.00   44.96640778   0.54451329
3544.00   45.52518845   0.54616076
3546.00   44.17517853   0.53667665
3548.00   44.72077560   0.53736430
3550.00   45.15736771   0.53835011
3552.00   46.24208450   0.54210502
3554.00   45.63140869   0.53745019
3556.00   47.03059769   0.54485208
3558.00   46.74568939   0.53915292
3560.00   46.87946701   0.53696573
3562.00   47.21220016   0.53581780
3564.00   46.77212906   0.53143781
3566.00   46.97293854   0.53019452
3568.00   47.38186264   0.52998674
3570.00   47.72600937   0.52890754
3572.00   48.60682678   0.53288203
3574.00   47.83657837   0.52677679
3576.00   46.96871948   0.51907325
3578.00   46.60850525   0.51482409
3580.00   45.81268692   0.50888252
3582.00   44.83691406   0.50138837
3584.00   43.99374390   0.49319309
3586.00   44.73272324   0.49531808
3588.00   44.48425293   0.49141964
3590.00   44.41371536   0.48923233
3592.00   43.97536469   0.48432884
3594.00   43.32669830   0.47823644
3596.00   42.91114807   0.47434437
3598.00   42.28998566   0.46877795
3600.00   42.26461029   0.46609774
3602.00   42.70043564   0.46587786
3604.00   43.02530289   0.46549797
3606.00   42.45284653   0.46042377
3608.00   43.43006516   0.46373269
3610.00   44.10678864   0.46372813
3612.00   43.59297180   0.46034840
3614.00   43.27442169   0.45608598
3616.00   44.62163544   0.46112284
3618.00   45.99384689   0.46470794
3620.00   47.07634354   0.46820363
3622.00   47.20961761   0.46651000
3624.00   47.52918243   0.46537837
3626.00   47.90853119   0.46444970
3628.00   48.92613983   0.46734411
3630.00   50.83349228   0.47446164
3632.00   51.12798691   0.47431678
3634.00   51.77449799   0.47442320
3636.00   51.02742004   0.46947688
3638.00   50.90675735   0.46694508
3640.00   51.55316925   0.46836695
3642.00   51.52104187   0.46689135
3644.00   51.29934311   0.46376368
3646.00   49.93931961   0.45710212
3648.00   49.56575394   0.45704201
3650.00   49.41973114   0.45626041
3652.00   48.56994629   0.44923213
3654.00   47.81735611   0.44215947
3656.00   46.55775452   0.43375587
3658.00   45.68425751   0.42689261
3660.00   44.78362274   0.42126527
3662.00   43.73691940   0.41640824
3664.00   42.25368881   0.40767965
3666.00   40.97672272   0.39832029
3668.00   39.71506119   0.39054677
3670.00   39.15607071   0.38536584
3672.00   37.49472046   0.37670869
3674.00   36.02487564   0.36840463
3676.00   35.66623688   0.36480269
3678.00   34.00993729   0.35505652
3680.00   33.69089890   0.35180137
3682.00   32.71195221   0.34628773
3684.00   32.35142899   0.34276035
3686.00   32.28871155   0.34006417
3688.00   31.70056534   0.33660230
3690.00   29.97148132   0.32641575
3692.00   30.17909431   0.32614157
3694.00   29.05089569   0.31893998
3696.00   28.93911934   0.31660157
3698.00   28.53780556   0.31389275
3700.00   28.67994118   0.31346691
3702.00   29.14800262   0.31507531
3704.00   27.86590958   0.30759531
3706.00   27.46255112   0.30379680
3708.00   27.03383064   0.30046606
3710.00   27.22501183   0.29969594
3712.00   26.86116982   0.29704592
3714.00   27.11789703   0.29775089
3716.00   26.74811745   0.29470262
3718.00   26.34805679   0.29135397
3720.00   26.69287872   0.29209620
3722.00   26.47107887   0.28989914
3724.00   26.19578743   0.28778458
3726.00   26.51918793   0.28863037
3728.00   26.36432648   0.28772354
3730.00   26.30613899   0.28604692
3732.00   27.28633499   0.29040131
3734.00   26.77242851   0.28615177
3736.00   26.77721786   0.28599378
3738.00   26.29890823   0.28231359
3740.00   26.27183151   0.28213957
3742.00   26.69862747   0.28316814
3744.00   26.43684769   0.28148600
3746.00   26.73721313   0.28142831
3748.00   26.36849403   0.27858722
3750.00   26.21817970   0.27684292
3752.00   25.68366051   0.27405381
3754.00   25.52548599   0.27235147
3756.00   25.34911346   0.27008489
3758.00   25.68822861   0.27103361
3760.00   24.84202576   0.26632813
3762.00   24.42488098   0.26340038
3764.00   24.34117126   0.26218519
3766.00   25.06646156   0.26477847
3768.00   24.39687920   0.26213577
3770.00   24.68535423   0.26271388
3772.00   24.76886177   0.26207101
3774.00   24.94200897   0.26245767
3776.00   24.61920547   0.26002744
3778.00   24.49903107   0.25822887
3780.00   24.33330154   0.25718427
3782.00   24.45283890   0.25721329
3784.00   24.41609383   0.25663176
3786.00   24.70692444   0.25751075
3788.00   24.52722168   0.25631618
3790.00   24.79918289   0.25724825
3792.00   24.91338730   0.25723895
3794.00   25.00882912   0.25684935
3796.00   24.73976135   0.25462943
3798.00   25.23913002   0.25702721
3800.00   24.68082619   0.25393194
3802.00   25.41092110   0.25720230
3804.00   25.91221046   0.25845701
3806.00   26.56127167   0.26051468
3808.00   26.60340118   0.25976533
3810.00   26.93297768   0.26059952
3812.00   27.80531120   0.26435810
3814.00   28.06663132   0.26498976
3816.00   28.56914711   0.26644507
3818.00   29.51274300   0.26995501
3820.00   29.76579475   0.27047831
3822.00   30.49523354   0.27285936
3824.00   31.02746964   0.27419770
3826.00   31.27319336   0.27494609
3828.00   33.10818100   0.28152683
3830.00   33.31347275   0.28173828
3832.00   33.66252518   0.28235951
3834.00   34.69221878   0.28490871
3836.00   35.38598633   0.28702974
3838.00   36.52563095   0.28991088
3840.00   37.10619736   0.29178321
3842.00   37.26002121   0.29159030
3844.00   38.87243652   0.29665035
3846.00   39.79189682   0.29912293
3848.00   40.21956635   0.29968289
3850.00   41.43680191   0.30305317
3852.00   42.62754440   0.30655083
3854.00   43.73464584   0.30977979
3856.00   44.54841232   0.31153935
3858.00   45.53914642   0.31484497
3860.00   46.89799118   0.31865418
3862.00   47.45808792   0.32013333
3864.00   48.47491837   0.32262036
3866.00   50.06245804   0.32725146
3868.00   51.20690918   0.33015046
3870.00   52.69388580   0.33414865
3872.00   53.68273163   0.33676109
3874.00   54.82799530   0.34019250
3876.00   55.07434082   0.33989432
3878.00   56.36730194   0.34316087
3880.00   56.82252884   0.34407210
3882.00   56.93723679   0.34362909
3884.00   57.80056763   0.34589916
3886.00   58.26260757   0.34636670
3888.00   58.66625214   0.34710738
3890.00   59.02539062   0.34732971
3892.00   59.76481247   0.34952903
3894.00   60.07988358   0.34995240
3896.00   60.75304031   0.35098255
3898.00   60.48738861   0.34943926
3900.00   61.97002029   0.35321993
3902.00   62.31042480   0.35386816
3904.00   63.76251602   0.35700771
3906.00   64.80030823   0.36001164
3908.00   64.61234283   0.35883895
3910.00   65.06678009   0.35991859
3912.00   65.16101074   0.35914120
3914.00   65.19982910   0.35836446
3916.00   65.16937256   0.35639894
3918.00   65.48988342   0.35619929
3920.00   65.63183594   0.35595202
3922.00   65.80360413   0.35539177
3924.00   65.39598846   0.35363126
3926.00   66.19684601   0.35490498
3928.00   64.94242859   0.35113737
3930.00   64.77145386   0.34970069
3932.00   61.12638855   0.33987942
3934.00   62.46144867   0.34314245
3936.00   64.49368286   0.34726441
3938.00   64.38944244   0.34646833
3940.00   63.99673080   0.34459460
3942.00   63.50788116   0.34317940
3944.00   63.30929565   0.34194770
3946.00   62.36309052   0.33833107
3948.00   61.78782654   0.33598104
3950.00   61.27648163   0.33441606
3952.00   60.03334045   0.33025435
3954.00   59.66167831   0.32861590
3956.00   59.09265900   0.32676637
3958.00   58.05586243   0.32379690
3960.00   58.07678986   0.32362810
3962.00   57.20403671   0.32077676
3964.00   56.95334244   0.31871951
3966.00   54.91817474   0.31250137
3968.00   53.93682098   0.30967361
3970.00   54.81287766   0.31160176
3972.00   54.64474869   0.31062558
3974.00   53.59678268   0.30707169
3976.00   53.15382385   0.30493438
3978.00   52.38289642   0.30178231
3980.00   51.93639755   0.30028263
3982.00   52.23337936   0.29969615
3984.00   51.29444122   0.29656702
3986.00   51.25787354   0.29611662
3988.00   51.48640442   0.29593605
3990.00   51.76288986   0.29640982
3992.00   51.91762161   0.29655498
3994.00   51.86357117   0.29618526
3996.00   51.71416473   0.29564336
3998.00   51.33257294   0.29399085
4000.00   51.18901062   0.29262963
4002.00   51.32107162   0.29244664
4004.00   52.22942734   0.29419842
4006.00   52.07088852   0.29350388
4008.00   52.25070190   0.29340467
4010.00   52.41529846   0.29306638
4012.00   52.71773529   0.29326880
4014.00   53.38809204   0.29459369
4016.00   53.52563095   0.29437846
4018.00   53.93389511   0.29540575
4020.00   54.38039017   0.29655671
4022.00   55.18989182   0.29841423
4024.00   55.02401352   0.29697478
4026.00   55.70702744   0.29777235
4028.00   56.51955414   0.29879358
4030.00   57.09341812   0.29967687
4032.00   57.98254395   0.30135936
4034.00   58.46252441   0.30198175
4036.00   58.68988800   0.30179879
4038.00   59.01724243   0.30215389
4040.00   59.99981689   0.30375084
4042.00   60.44066620   0.30475745
4044.00   61.17848587   0.30981508
4046.00   61.26059341   0.31204826
4048.00   62.00293732   0.31117222
4050.00   61.97105408   0.30669352
4052.00   62.34817886   0.30607733
4054.00   63.05629730   0.30731618
4056.00   63.34676743   0.30744201
4058.00   64.13889313   0.30846015
4060.00   64.16463470   0.30754784
4062.00   64.44110107   0.30764189
4064.00   65.02838135   0.30845025
4066.00   64.74024963   0.30739030
4068.00   65.08990479   0.30779579
4070.00   65.77313995   0.30886689
4072.00   66.39221954   0.30951327
4074.00   66.12360382   0.30839810
4076.00   66.18267059   0.30845693
4078.00   66.67683411   0.30907553
4080.00   66.35378265   0.30762008
4082.00   67.15071106   0.30861193
4084.00   67.07498169   0.30808616
4086.00   67.59307861   0.30856472
4088.00   68.22079468   0.30902398
4090.00   68.04933167   0.30806443
4092.00   68.51907349   0.30838323
4094.00   68.60707855   0.30805224
4096.00   68.68535614   0.30784014
4098.00   68.60289001   0.30729112
4100.00   68.54077148   0.30657417
4102.00   68.95035553   0.30699024
4104.00   68.42202759   0.30527958
4106.00   68.67974854   0.30507472
4108.00   68.61993408   0.30461004
4110.00   68.77996063   0.30429298
4112.00   68.65274811   0.30340350
4114.00   68.61027527   0.30272490
4116.00   69.20310974   0.30328253
4118.00   69.27776337   0.30264360
4120.00   68.75888062   0.30107820
4122.00   69.02392578   0.30121630
4124.00   69.07355499   0.30062723
4126.00   68.52101898   0.29894811
4128.00   68.45057678   0.29803956
4130.00   67.28801727   0.29527020
4132.00   66.88657379   0.29411510
4134.00   66.16389465   0.29181418
4136.00   65.98635101   0.29078716
4138.00   65.48853302   0.28915346
4140.00   65.37254333   0.28827405
4142.00   64.83429718   0.28650197
4144.00   64.79636383   0.28558418
4146.00   64.19825745   0.28365457
4148.00   64.44789124   0.28329551
4150.00   64.01007080   0.28239018
4152.00   64.02530670   0.28183535
4154.00   63.55842209   0.28042355
4156.00   63.88720322   0.28023928
4158.00   63.21912384   0.27841339
4160.00   63.28559494   0.27793247
4162.00   62.88590622   0.27696618
4164.00   62.64887238   0.27621543
4166.00   62.22671509   0.27467245
4168.00   61.80704117   0.27309018
4170.00   61.68519592   0.27214569
4172.00   61.74958420   0.27207327
4174.00   61.33536148   0.27080727
4176.00   61.66419220   0.27112582
4178.00   61.88543320   0.27126816
4180.00   62.01465988   0.27109745
4182.00   61.68859100   0.26990438
4184.00   61.29658508   0.26851806
4186.00   61.58950043   0.26876464
4188.00   61.78331757   0.26879689
4190.00   61.45541382   0.26765868
4192.00   61.01180267   0.26618803
4194.00   60.94651794   0.26561224
4196.00   59.86964417   0.26300967
4198.00   59.20225143   0.26124284
4200.00   59.18417358   0.26074290
4202.00   58.08508301   0.25821882
4204.00   57.74118042   0.25699607
4206.00   56.94657898   0.25506419
4208.00   56.25788116   0.25293902
4210.00   55.63191986   0.25128219
4212.00   54.80399323   0.24900925
4214.00   54.27094650   0.24730244
4216.00   53.79225159   0.24598134
4218.00   53.09126663   0.24377851
4220.00   52.65143204   0.24256085
4222.00   51.87742233   0.24058416
4224.00   51.97237778   0.24027692
4226.00   51.20948792   0.23804091
4228.00   50.62224579   0.23647720
4230.00   50.11008072   0.23479825
4232.00   50.03291321   0.23436373
4234.00   49.50696182   0.23266469
4236.00   49.42712021   0.23251420
4238.00   49.00806808   0.23114441
4240.00   48.23644638   0.22876751
4242.00   47.51155853   0.22651801
4244.00   46.83702850   0.22488238
4246.00   46.71863937   0.22477423
4248.00   46.20869827   0.22310051
4250.00   46.09645844   0.22175467
4252.00   45.10518646   0.21926320
4254.00   44.57621765   0.21772143
4256.00   43.77461243   0.21553363
4258.00   43.50421524   0.21459308
4260.00   42.30171204   0.21149425
4262.00   41.91700745   0.21003938
4264.00   41.41615677   0.20870660
4266.00   40.24191284   0.20520316
4268.00   39.75445175   0.20388222
4270.00   38.71544647   0.20117486
4272.00   37.84777069   0.19864997
4274.00   37.50294495   0.19756377
4276.00   37.14380646   0.19625770
4278.00   36.65250778   0.19500196
4280.00   36.42163467   0.19417217
4282.00   35.84455872   0.19258745
4284.00   35.21010971   0.19087398
4286.00   35.71100998   0.19157484
4288.00   35.32416153   0.19038810
4290.00   34.92881012   0.18898696
4292.00   34.99724197   0.18907145
4294.00   34.75885773   0.18837152
4296.00   34.79547119   0.18843417
4298.00   35.14408493   0.18916440
4300.00   34.47353745   0.18714635
4302.00   34.33109283   0.18667321
4304.00   34.24618149   0.18634741
4306.00   34.14436722   0.18567571
4308.00   34.47627640   0.18654642
4310.00   34.28548050   0.18593612
4312.00   34.66995239   0.18703501
4314.00   34.67941666   0.18694150
4316.00   35.21242523   0.18766980
4318.00   34.94833755   0.18694216
4320.00   35.28969955   0.18773292
4322.00   35.68713760   0.18829645
4324.00   35.56070328   0.18767031
4326.00   36.14679337   0.18889359
4328.00   36.88727951   0.19023088
4330.00   36.83882904   0.19047229
4332.00   37.26969528   0.19109985
4334.00   37.51966476   0.19165868
4336.00   37.80945587   0.19250922
4338.00   38.09172821   0.19301043
4340.00   37.96904373   0.19252039
4342.00   38.26928711   0.19289027
4344.00   38.15310669   0.19247122
4346.00   38.09732056   0.19240701
4348.00   38.06923676   0.19229558
4350.00   37.71396255   0.19114897
4352.00   36.93190002   0.18907146
4354.00   36.96739578   0.19004317
4356.00   36.64506531   0.19529144
4358.00   36.87828064   0.19898523
4360.00   36.95800018   0.19567129
4362.00   37.18325424   0.19081336
4364.00   37.25462341   0.18907833
4366.00   37.57820892   0.18938938
4368.00   37.51153183   0.18888408
4370.00   38.24092865   0.19039762
4372.00   38.51923752   0.19101240
4374.00   38.54565430   0.19125095
4376.00   38.84816360   0.19154274
4378.00   39.16692352   0.19205935
4380.00   39.47806549   0.19259781
4382.00   39.70841217   0.19283655
4384.00   39.78034210   0.19294269
4386.00   40.08383942   0.19349054
4388.00   40.57199097   0.19441858
4390.00   40.73551178   0.19461709
4392.00   41.06054306   0.19512084
4394.00   41.21757507   0.19529830
4396.00   41.85769653   0.19652566
4398.00   41.92317200   0.19671188
4400.00   42.28581619   0.19732007
4402.00   41.66733932   0.19572194
4404.00   41.89771271   0.19599730
4406.00   41.71450424   0.19544074
4408.00   41.60904312   0.19501291
4410.00   41.55065155   0.19502161
4412.00   40.79327774   0.19323538
4414.00   40.76211929   0.19294202
4416.00   40.61920929   0.19248642
4418.00   40.09235382   0.19121148
4420.00   40.23815155   0.19122213
4422.00   39.98627472   0.19035408
4424.00   39.87554169   0.19008015
4426.00   39.64937210   0.18942478
4428.00   39.49404907   0.18893515
4430.00   39.69688034   0.18938322
4432.00   39.43497849   0.18874818
4434.00   39.66749191   0.18908116
4436.00   39.62281418   0.18898006
4438.00   39.90501022   0.18953691
4440.00   39.67137146   0.18893744
4442.00   39.77767563   0.18920332
4444.00   39.56731415   0.18860923
4446.00   39.62585068   0.18863989
4448.00   39.99337769   0.18922645
4450.00   40.39617157   0.19004980
4452.00   40.05379868   0.18937263
4454.00   40.89256287   0.19103901
4456.00   41.27325439   0.19192788
4458.00   41.47126389   0.19215102
4460.00   42.10885620   0.19346988
4462.00   42.67718124   0.19459726
4464.00   43.42341995   0.19628009
4466.00   43.78385925   0.19702064
4468.00   44.53023529   0.19843316
4470.00   45.09392548   0.19951345
4472.00   46.14760590   0.20153268
4474.00   46.57121277   0.20219877
4476.00   47.11341858   0.20319213
4478.00   47.97085190   0.20494531
4480.00   48.24704742   0.20532359
4482.00   49.03546524   0.20683104
4484.00   49.50428772   0.20780391
4486.00   49.75905228   0.20821097
4488.00   50.70020294   0.20996176
4490.00   50.97329330   0.21035662
4492.00   51.30885696   0.21119079
4494.00   51.46039581   0.21148337
4496.00   51.79958344   0.21207540
4498.00   52.70523834   0.21369898
4500.00   52.80680084   0.21377210
4502.00   52.92593002   0.21386419
4504.00   53.18705368   0.21439923
4506.00   53.87641907   0.21556589
4508.00   53.70802689   0.21529476
4510.00   53.60908890   0.21495837
4512.00   54.24233627   0.21600021
4514.00   54.34492111   0.21629998
4516.00   54.36208344   0.21622753
4518.00   55.02433777   0.21741420
4520.00   55.31291962   0.21796344
4522.00   55.36511993   0.21814781
4524.00   55.08147049   0.21758692
4526.00   55.75283432   0.21878064
4528.00   55.28755569   0.21775414
4530.00   55.18917847   0.21754411
4532.00   55.25945663   0.21740779
4534.00   55.04731750   0.21699826
4536.00   55.13431168   0.21719000
4538.00   54.94181824   0.21671176
4540.00   54.72408676   0.21608889
4542.00   54.70143890   0.21596566
4544.00   54.84711456   0.21607769
4546.00   54.58956528   0.21524127
4548.00   54.07837677   0.21402027
4550.00   53.78576279   0.21329758
4552.00   53.82369995   0.21348406
4554.00   53.62815475   0.21288480
4556.00   53.64475250   0.21281955
4558.00   53.45977783   0.21240005
4560.00   52.71008682   0.21083128
4562.00   52.93577576   0.21103975
4564.00   52.82312393   0.21062411
4566.00   53.45491028   0.21178584
4568.00   53.23133850   0.21125220
4570.00   53.20752335   0.21122336
4572.00   53.01572418   0.21071677
