# File created by shivutils (I.Shivvers)
# wl(A)   flm    er(optional)
3444.00   25.15317917   0.22131811
3446.00   24.68695450   0.22203599
3448.00   24.53340340   0.23289369
3450.00   24.77080345   0.23022710
3452.00   24.40582848   0.23127043
3454.00   25.04776955   0.23665856
3456.00   24.91798973   0.23830271
3458.00   25.18502426   0.24097797
3460.00   25.19863892   0.24398667
3462.00   25.52055740   0.24759743
3464.00   25.44494438   0.24892388
3466.00   25.36515808   0.25046766
3468.00   25.32033730   0.25289741
3470.00   25.81256485   0.25592914
3472.00   26.21826172   0.25871518
3474.00   26.75826454   0.26207602
3476.00   26.67764091   0.26340824
3478.00   27.64139748   0.26979667
3480.00   27.55858803   0.27143398
3482.00   28.40865135   0.27571121
3484.00   28.60381889   0.27863947
3486.00   29.86526489   0.28526384
3488.00   29.39435577   0.28411630
3490.00   30.56405258   0.29008740
3492.00   30.79594803   0.29255894
3494.00   30.96852303   0.29477644
3496.00   31.02794266   0.29641739
3498.00   31.23679352   0.29886487
3500.00   31.95068741   0.30365780
3502.00   32.98981857   0.30842325
3504.00   33.26314926   0.31064138
3506.00   33.49275589   0.31246442
3508.00   33.41680527   0.31266955
3510.00   33.70267868   0.31359538
3512.00   33.70603180   0.31289145
3514.00   33.90379715   0.32178444
3516.00   32.71389771   0.30944848
3518.00   32.81115341   0.31074944
3520.00   33.37165451   0.31150159
3522.00   33.73970795   0.31213129
3524.00   33.65726089   0.31079197
3526.00   33.24481583   0.30957457
3528.00   34.19308090   0.31421119
3530.00   33.23599243   0.30980882
3532.00   33.64960861   0.31132370
3534.00   33.65212631   0.31145069
3536.00   33.72426224   0.31162560
3538.00   33.93930054   0.31201708
3540.00   33.62588501   0.30996436
3542.00   33.83382797   0.30992800
3544.00   34.74057770   0.31375617
3546.00   34.73887253   0.31266919
3548.00   34.27302933   0.30990085
3550.00   35.13376617   0.31197876
3552.00   35.02968597   0.30960724
3554.00   35.19123840   0.30912289
3556.00   35.79869080   0.30987382
3558.00   36.29499054   0.31011817
3560.00   36.16969299   0.30826268
3562.00   35.82232285   0.30483180
3564.00   36.28337479   0.30382851
3566.00   35.92775726   0.29969454
3568.00   36.38058853   0.29968017
3570.00   35.70954895   0.29563999
3572.00   34.94178772   0.29088825
3574.00   34.12406540   0.28623891
3576.00   35.19635391   0.28860012
3578.00   34.16514587   0.28274268
3580.00   33.88471603   0.27963299
3582.00   34.02751923   0.27785110
3584.00   33.25230408   0.27341339
3586.00   32.82886505   0.27039862
3588.00   32.84596252   0.27026257
3590.00   32.76848602   0.26895854
3592.00   32.24367523   0.26546788
3594.00   31.51770401   0.26166278
3596.00   30.85817146   0.25762054
3598.00   31.29152298   0.25837436
3600.00   30.86922073   0.25576755
3602.00   31.06255341   0.25391772
3604.00   31.61142540   0.25490409
3606.00   32.02391434   0.25518331
3608.00   31.80493355   0.25333443
3610.00   32.02445602   0.25324416
3612.00   32.56341553   0.25452766
3614.00   32.84359360   0.25478241
3616.00   33.31341934   0.25458127
3618.00   33.94604492   0.25428388
3620.00   34.70108032   0.25579384
3622.00   34.40410233   0.25398421
3624.00   35.19857788   0.25565994
3626.00   35.02999115   0.25403938
3628.00   35.81581879   0.25544792
3630.00   36.01729584   0.25416270
3632.00   35.44496918   0.25068402
3634.00   35.51657104   0.24970056
3636.00   34.56335068   0.24529986
3638.00   33.74826431   0.24232191
3640.00   33.50906754   0.24072210
3642.00   32.83915329   0.23686621
3644.00   33.10288620   0.23600131
3646.00   32.14342499   0.23196580
3648.00   31.03599930   0.22936226
3650.00   30.93104935   0.22899215
3652.00   30.14670944   0.22441737
3654.00   29.43381119   0.22041106
3656.00   28.26628113   0.21505320
3658.00   27.91062164   0.21218885
3660.00   27.15800858   0.20887206
3662.00   26.27596283   0.20503105
3664.00   25.70411110   0.20198385
3666.00   25.22561455   0.19875807
3668.00   24.33910370   0.19458076
3670.00   24.02292824   0.19231415
3672.00   23.37340164   0.18911813
3674.00   22.22770500   0.18437058
3676.00   21.86376381   0.18179470
3678.00   21.64590836   0.17982647
3680.00   21.38920212   0.17837572
3682.00   20.87374496   0.17575721
3684.00   20.41360474   0.17298569
3686.00   20.34358978   0.17195518
3688.00   19.31271362   0.16766523
3690.00   19.37937355   0.16795413
3692.00   19.11629677   0.16608860
3694.00   18.65803719   0.16325724
3696.00   18.72137642   0.16308947
3698.00   18.65293884   0.16260433
3700.00   18.00106621   0.15956779
3702.00   17.90010452   0.15805230
3704.00   18.30657196   0.15801688
3706.00   17.89333153   0.15581785
3708.00   17.63264084   0.15469074
3710.00   17.30600548   0.15313153
3712.00   17.51258469   0.15394583
3714.00   17.20975304   0.15239899
3716.00   16.93640327   0.15035075
3718.00   17.22040176   0.15001133
3720.00   17.44488335   0.14883894
3722.00   17.48040581   0.14924268
3724.00   17.54812622   0.14962456
3726.00   17.48466682   0.14886281
3728.00   17.68641663   0.14930712
3730.00   18.09810257   0.15020515
3732.00   18.51569557   0.15003920
3734.00   18.28529930   0.14792004
3736.00   18.36504555   0.14808547
3738.00   18.08993721   0.14791287
3740.00   18.23518562   0.14852583
3742.00   18.35988617   0.14858185
3744.00   18.41885948   0.14739595
3746.00   18.76613426   0.14736763
3748.00   18.80011177   0.14715619
3750.00   18.37061691   0.14569636
3752.00   18.05187225   0.14555162
3754.00   17.91811943   0.14502239
3756.00   18.21513748   0.14515723
3758.00   17.78165817   0.14300406
3760.00   18.24692917   0.14432847
3762.00   18.02883339   0.14325173
3764.00   18.21602821   0.14354512
3766.00   18.12363625   0.14341983
3768.00   18.02630806   0.14281853
3770.00   18.36558151   0.14389539
3772.00   18.00704956   0.14281069
3774.00   18.09386826   0.14311811
3776.00   18.29441833   0.14351502
3778.00   18.22382545   0.14308894
3780.00   18.27196884   0.14327666
3782.00   18.37139893   0.14336435
3784.00   18.51588821   0.14350867
3786.00   18.80354118   0.14355770
3788.00   18.67027473   0.14299546
3790.00   18.98182678   0.14365047
3792.00   19.02174568   0.14338261
3794.00   19.36051559   0.14399309
3796.00   19.38412285   0.14320429
3798.00   19.41361237   0.14957720
3800.00   19.49025345   0.14323701
3802.00   19.56822205   0.14362793
3804.00   19.89780617   0.14406519
3806.00   19.91788101   0.14329606
3808.00   20.33047104   0.14425983
3810.00   20.75440788   0.14540623
3812.00   21.30872345   0.14653285
3814.00   21.66345978   0.14670119
3816.00   22.30130959   0.14815521
3818.00   22.86154366   0.14968225
3820.00   23.19807625   0.15014406
3822.00   23.96151733   0.15242720
3824.00   24.41461945   0.15306425
3826.00   25.04306221   0.15430531
3828.00   25.69886589   0.15618131
3830.00   26.02165604   0.15663679
3832.00   26.43384743   0.15722907
3834.00   27.21485329   0.15901081
3836.00   27.97952080   0.16088374
3838.00   28.26642609   0.16106690
3840.00   28.75606918   0.16257058
3842.00   29.50631714   0.16437696
3844.00   30.46452904   0.16685393
3846.00   30.94171906   0.16772559
3848.00   31.74826050   0.16949467
3850.00   32.81957245   0.17164923
3852.00   33.49880600   0.17307395
3854.00   34.24055481   0.17470942
3856.00   35.49267960   0.17733707
3858.00   36.21035385   0.17856772
3860.00   36.91870117   0.18009807
3862.00   37.40786743   0.18126148
3864.00   38.39287949   0.18330216
3866.00   38.93157959   0.18435848
3868.00   39.56070328   0.18494284
3870.00   39.58405304   0.18486074
3872.00   40.00592422   0.18527029
3874.00   40.33068085   0.18611878
3876.00   40.91053772   0.18689375
3878.00   40.84807587   0.18620950
3880.00   41.03962708   0.18598424
3882.00   41.22807693   0.18621731
3884.00   41.69000244   0.18683335
3886.00   41.88112259   0.18683532
3888.00   41.69711304   0.18595932
3890.00   42.20116806   0.18696414
3892.00   42.16651917   0.18677220
3894.00   42.43007278   0.18700619
3896.00   42.43216324   0.18678546
3898.00   42.92911530   0.18746679
3900.00   43.38113022   0.18794027
3902.00   43.93592834   0.18878311
3904.00   44.24131012   0.18932365
3906.00   44.43082428   0.18979205
3908.00   44.25981903   0.18938109
3910.00   44.24466705   0.18952122
3912.00   44.29809570   0.18929502
3914.00   44.91440964   0.18996352
3916.00   45.54718781   0.19008994
3918.00   45.16320038   0.18849649
3920.00   45.62142563   0.18905209
3922.00   45.77171326   0.18892789
3924.00   46.21246719   0.18961246
3926.00   46.35117340   0.18945420
3928.00   46.76489258   0.18927214
3930.00   46.00820923   0.19095796
3932.00   43.85966110   0.18311638
3934.00   44.66402435   0.18423903
3936.00   45.81580353   0.18632041
3938.00   45.20535660   0.18522337
3940.00   44.75244904   0.18427318
3942.00   44.44760132   0.18351226
3944.00   43.40116501   0.18182757
3946.00   43.19381714   0.18695679
3948.00   42.35586548   0.17817327
3950.00   42.09233093   0.17799056
3952.00   41.13137817   0.17594282
3954.00   40.81656265   0.17501393
3956.00   40.32291031   0.17411292
3958.00   40.57717133   0.17439964
3960.00   40.17031479   0.17347673
3962.00   40.71338654   0.17403829
3964.00   39.80986786   0.17174242
3966.00   38.54906845   0.16867268
3968.00   38.47650528   0.16831641
3970.00   38.93367767   0.16933919
3972.00   38.47861099   0.16860540
3974.00   38.32514191   0.16813184
3976.00   37.54761887   0.16672418
3978.00   37.31847763   0.16617139
3980.00   37.31560516   0.16591606
3982.00   36.81919098   0.16454101
3984.00   36.52787018   0.16369174
3986.00   36.38528442   0.16328080
3988.00   36.59039688   0.16381115
3990.00   36.42168045   0.16355258
3992.00   36.63456726   0.16390020
3994.00   36.59669495   0.16385762
3996.00   36.73219299   0.16397870
3998.00   36.51166916   0.16331387
4000.00   36.58668518   0.16324072
4002.00   36.82362747   0.16357021
4004.00   36.92244720   0.16331489
4006.00   37.07356262   0.16339125
4008.00   37.36215591   0.16394912
4010.00   37.36481476   0.16376349
4012.00   37.79284668   0.16439027
4014.00   37.90486526   0.16435391
4016.00   38.10388565   0.16450071
4018.00   38.71526337   0.16578540
4020.00   39.21730423   0.16668680
4022.00   39.64274216   0.16725212
4024.00   39.63311005   0.16690002
4026.00   40.22359467   0.16758026
4028.00   40.80661011   0.16819498
4030.00   41.22573471   0.16845736
4032.00   41.75214386   0.16873230
4034.00   42.01422882   0.16891223
4036.00   41.89490128   0.16874620
4038.00   42.61638641   0.16990651
4040.00   43.03929138   0.17019966
4042.00   43.60898972   0.17112078
4044.00   43.96244049   0.17324878
4046.00   44.21355057   0.17468014
4048.00   44.29982376   0.17340857
4050.00   44.30455399   0.17109723
4052.00   44.65121460   0.17100972
4054.00   44.77983475   0.17101985
4056.00   45.28543091   0.17138104
4058.00   45.29106522   0.17091647
4060.00   45.57552338   0.17095904
4062.00   45.96307755   0.17114696
4064.00   46.80307388   0.17223199
4066.00   47.05555344   0.17253128
4068.00   46.91180038   0.17219135
4070.00   47.38707352   0.17252430
4072.00   47.36825562   0.17217076
4074.00   47.74024963   0.17259017
4076.00   47.73587036   0.17235300
4078.00   48.09635162   0.17268689
4080.00   48.08615494   0.17246629
4082.00   48.00734329   0.17183290
4084.00   48.43746567   0.17230459
4086.00   48.61141205   0.17226459
4088.00   48.69419098   0.17221886
4090.00   48.77008820   0.17181879
4092.00   48.77520370   0.17154139
4094.00   48.59031677   0.17083199
4096.00   48.94727325   0.17107284
4098.00   49.10713959   0.17112736
4100.00   49.20788574   0.17065924
4102.00   49.42706680   0.17064767
4104.00   48.95195007   0.16993484
4106.00   48.80090714   0.16956194
4108.00   48.98830032   0.16961396
4110.00   48.90206528   0.16903599
4112.00   49.52955246   0.16968684
4114.00   49.23720932   0.16898997
4116.00   48.92124557   0.16819145
4118.00   48.63996887   0.16733292
4120.00   48.17180634   0.16633277
4122.00   47.63920975   0.16518529
4124.00   47.45442200   0.16455761
4126.00   46.84204102   0.16323796
4128.00   46.21660995   0.16196498
4130.00   46.09820938   0.16141750
4132.00   45.82692337   0.16047041
4134.00   45.45019150   0.15955718
4136.00   45.55066299   0.15941760
4138.00   45.07566071   0.15854968
4140.00   45.46264648   0.15888901
4142.00   45.28731537   0.15801355
4144.00   45.46297836   0.15777366
4146.00   45.18424606   0.15713118
4148.00   44.89783096   0.15653479
4150.00   44.61635590   0.15581818
4152.00   43.95220566   0.15441948
4154.00   44.28321838   0.15445766
4156.00   44.37911606   0.15430126
4158.00   43.42941666   0.15244178
4160.00   43.24789047   0.15187187
4162.00   43.14598846   0.15156229
4164.00   42.98096848   0.15111302
4166.00   42.45680618   0.14984570
4168.00   42.60031891   0.14954321
4170.00   42.56623077   0.14886792
4172.00   42.50416565   0.14836237
4174.00   42.67642593   0.14835058
4176.00   42.91986847   0.14853017
4178.00   42.61424255   0.14792331
4180.00   42.69207382   0.14762911
4182.00   42.30706024   0.14670143
4184.00   42.36092758   0.14643238
4186.00   42.07993698   0.14584066
4188.00   41.73133087   0.14496130
4190.00   41.59625244   0.14477897
4192.00   41.41499329   0.14427239
4194.00   40.59572220   0.14265236
4196.00   40.10448456   0.14150555
4198.00   39.95483780   0.14094315
4200.00   39.39821243   0.13972183
4202.00   38.94176865   0.13888687
4204.00   38.36788940   0.13788234
4206.00   38.20898438   0.13751884
4208.00   37.76813507   0.13648124
4210.00   37.68587875   0.13607623
4212.00   36.54862976   0.13381651
4214.00   36.41699219   0.13313949
4216.00   36.01142502   0.13212787
4218.00   35.73275375   0.13130952
4220.00   35.36080551   0.13052329
4222.00   34.95777512   0.12954435
4224.00   34.91847229   0.12897250
4226.00   34.54295731   0.12805364
4228.00   34.27579498   0.12759897
4230.00   33.98808670   0.12716743
4232.00   33.60336304   0.12625974
4234.00   33.19062424   0.12522241
4236.00   32.74612045   0.12429764
4238.00   32.51062775   0.12369502
4240.00   31.95065117   0.12238050
4242.00   31.58530617   0.12147303
4244.00   31.35251617   0.12124051
4246.00   30.70176888   0.12010054
4248.00   30.61444283   0.11948548
4250.00   29.88458252   0.11791965
4252.00   29.52926064   0.11716102
4254.00   28.99053001   0.11604288
4256.00   28.60950470   0.11522453
4258.00   28.15628624   0.11420725
4260.00   27.77083397   0.11332352
4262.00   27.23692322   0.11240949
4264.00   26.58511543   0.11126494
4266.00   26.32450867   0.11177798
4268.00   26.01399612   0.10936262
4270.00   25.84362984   0.10874955
4272.00   25.06552505   0.10699909
4274.00   24.96442413   0.10680186
4276.00   24.56667900   0.10613335
4278.00   24.38944435   0.10581882
4280.00   24.23242188   0.10526623
4282.00   24.11377144   0.10505813
4284.00   24.07379341   0.10468129
4286.00   23.65031624   0.10365178
4288.00   23.79170799   0.10362006
4290.00   23.78647995   0.10336504
4292.00   23.56310463   0.10281851
4294.00   23.73490334   0.10306729
4296.00   23.75571823   0.10344971
4298.00   23.95738220   0.10281713
4300.00   23.89817619   0.10239173
4302.00   23.97834396   0.10232350
4304.00   24.31298065   0.10288998
4306.00   24.27917671   0.10275564
4308.00   24.49667931   0.10291600
4310.00   24.58695412   0.10309827
4312.00   24.54850197   0.10347409
4314.00   24.83260727   0.10426679
4316.00   25.16335487   0.10472794
4318.00   25.39676285   0.10524927
4320.00   25.59760857   0.10558128
4322.00   26.04744720   0.10600229
4324.00   26.54488564   0.10656688
4326.00   26.82404137   0.10702396
4328.00   27.00651550   0.10754108
4330.00   26.99815750   0.10767647
4332.00   27.53622246   0.10878582
4334.00   27.54470253   0.10879108
4336.00   27.87362289   0.10923107
4338.00   27.75973320   0.10873134
4340.00   28.04059029   0.10905194
4342.00   27.81909752   0.10868653
4344.00   27.76974297   0.10861963
4346.00   27.55229187   0.10853634
4348.00   27.72033691   0.10877293
4350.00   27.72068977   0.10855271
4352.00   27.74489212   0.10838418
4354.00   27.79151726   0.10941978
4356.00   27.44267654   0.11243401
4358.00   27.68804741   0.11433032
4360.00   27.77180481   0.11219572
4362.00   27.96158028   0.11001956
4364.00   28.06951141   0.10907034
4366.00   28.29310608   0.10919761
4368.00   28.64322281   0.10949622
4370.00   28.91865921   0.10992056
4372.00   28.86389160   0.10969105
4374.00   29.12327385   0.11001848
4376.00   29.16976357   0.10995909
4378.00   29.34315872   0.11018264
4380.00   29.37750053   0.10997690
4382.00   29.63401031   0.11004193
4384.00   29.84021187   0.11003804
4386.00   29.77900314   0.10994565
4388.00   29.87130737   0.11004835
4390.00   30.04837990   0.11016033
4392.00   29.94986534   0.10993993
4394.00   29.59541130   0.10928371
4396.00   29.67545891   0.10944241
4398.00   29.47384453   0.10915527
4400.00   29.22649765   0.10859034
4402.00   29.05981255   0.10814685
4404.00   28.59869194   0.10715877
4406.00   28.47568321   0.10696758
4408.00   28.19457817   0.10654750
4410.00   27.84844208   0.10609511
4412.00   27.88349915   0.10607453
4414.00   27.82227898   0.10593244
4416.00   27.51280022   0.10533963
4418.00   27.51506042   0.10529494
4420.00   27.37946701   0.10483386
4422.00   27.28298187   0.10456442
4424.00   26.91529655   0.10380860
4426.00   26.94316483   0.10386334
4428.00   27.18775177   0.10424130
4430.00   27.27085876   0.10439518
4432.00   27.19316483   0.10416019
4434.00   27.28465271   0.10419074
4436.00   27.34242058   0.10424237
4438.00   27.73074913   0.10488650
4440.00   27.67211723   0.10485506
4442.00   27.85507774   0.10498409
4444.00   27.86550522   0.10493734
4446.00   28.20877457   0.10551440
4448.00   28.31689262   0.10548542
4450.00   28.85684967   0.10641415
4452.00   29.09740448   0.10682260
4454.00   29.65317917   0.10764268
4456.00   29.92767525   0.10806623
4458.00   30.25470161   0.10856657
4460.00   30.78790092   0.10946693
4462.00   31.18561554   0.11011156
4464.00   31.47962570   0.11061762
4466.00   31.88258743   0.11126637
4468.00   32.64611435   0.11246869
4470.00   33.00517273   0.11304220
4472.00   33.40225601   0.11358222
4474.00   33.78561783   0.11404870
4476.00   33.93853760   0.11411540
4478.00   34.35479736   0.11458667
4480.00   34.49385452   0.11478583
4482.00   34.88282394   0.11534649
4484.00   35.16868973   0.11589891
4486.00   35.27799988   0.11610276
4488.00   35.44764328   0.11634192
4490.00   35.68566132   0.11682416
4492.00   35.67932510   0.11672577
4494.00   35.80778885   0.11689144
4496.00   36.29572296   0.11764298
4498.00   36.48300171   0.11788399
4500.00   36.61469650   0.11816004
4502.00   36.87216568   0.11841910
4504.00   36.69728851   0.11815512
4506.00   37.04076767   0.11862577
4508.00   37.22929382   0.11881332
4510.00   37.30855179   0.11891358
4512.00   37.52267456   0.11910252
4514.00   37.60321808   0.11907289
4516.00   37.89242935   0.11952674
4518.00   37.80133057   0.11949705
4520.00   37.71699905   0.11929479
4522.00   37.82662201   0.11942065
4524.00   38.07695770   0.11963131
4526.00   37.94132614   0.11944520
4528.00   37.94535065   0.11934371
4530.00   37.56216431   0.11874989
4532.00   37.10804749   0.11806234
4534.00   37.09154510   0.11809179
4536.00   36.83372498   0.11768326
4538.00   36.84572220   0.11768387
4540.00   36.80578613   0.11758824
4542.00   36.79111481   0.11755019
4544.00   36.49742889   0.11699596
4546.00   36.53451920   0.11691300
4548.00   36.55542374   0.11681169
4550.00   36.34783554   0.11645407
4552.00   36.24445343   0.11631492
4554.00   36.20094299   0.11631158
4556.00   36.10947418   0.11611636
4558.00   36.07555771   0.11612250
4560.00   36.30062485   0.11640884
4562.00   36.31737900   0.11633147
4564.00   36.41779327   0.11642875
4566.00   36.62425995   0.11663859
4568.00   36.50771713   0.11646158
4570.00   36.45967102   0.11632838
4572.00   36.37410736   0.11614095
4574.00   36.49132919   0.11626445
4576.00   36.39810944   0.11602895
4578.00   36.28629303   0.11582379
4580.00   36.15901184   0.11552554
