# File created by shivutils (I.Shivvers)
# wl(A)   flm    er(optional)
3422.00   1.56520224   0.05520198
3424.00   1.71029961   0.05688193
3426.00   1.74784148   0.05815693
3428.00   1.62294757   0.05691208
3430.00   1.62087691   0.05741930
3432.00   1.62454820   0.05731192
3434.00   1.60694706   0.05822275
3436.00   1.66935325   0.05934650
3438.00   1.55980659   0.05782702
3440.00   1.57934427   0.05763822
3442.00   1.56692564   0.05723448
3444.00   1.51926708   0.05729218
3446.00   1.53846169   0.05803771
3448.00   1.56583357   0.05862443
3450.00   1.63469374   0.06030717
3452.00   1.66994643   0.06149065
3454.00   1.71911895   0.06177495
3456.00   1.59096515   0.05974636
3458.00   1.61877692   0.06020597
3460.00   1.72760808   0.06091331
3462.00   1.70120394   0.06109118
3464.00   1.61238086   0.05997952
3466.00   1.64423823   0.06027927
3468.00   1.70150673   0.06149938
3470.00   1.66312623   0.06040502
3472.00   1.69194865   0.06092527
3474.00   1.73093033   0.06089440
3476.00   1.58524156   0.06015283
3478.00   1.65440345   0.06139695
3480.00   1.76602864   0.06349180
3482.00   1.79935730   0.06389603
3484.00   1.76088023   0.06304286
3486.00   1.76310444   0.06377174
3488.00   1.77773905   0.06357194
3490.00   1.72207820   0.06241221
3492.00   1.82193661   0.06263070
3494.00   1.83652616   0.06262869
3496.00   1.84094250   0.06255343
3498.00   1.87126076   0.06312475
3500.00   1.92677784   0.06405412
3502.00   1.93319154   0.06397755
3504.00   1.88777196   0.06361408
3506.00   1.80258656   0.06185645
3508.00   1.88750255   0.06265838
3510.00   1.81028748   0.06183238
3512.00   1.89076579   0.06367827
3514.00   1.89823210   0.06306297
3516.00   1.89833677   0.06246286
3518.00   1.83461654   0.06148684
3520.00   1.90724397   0.06167753
3522.00   1.94951940   0.06183400
3524.00   2.03211474   0.06243257
3526.00   1.86936903   0.05998356
3528.00   1.92248690   0.06119804
3530.00   2.01969147   0.06218902
3532.00   1.97093523   0.06167212
3534.00   1.87409711   0.06071573
3536.00   1.94615996   0.06104139
3538.00   1.91571081   0.06086707
3540.00   1.97370410   0.06125432
3542.00   1.96352637   0.06150990
3544.00   2.09738803   0.06346865
3546.00   2.08666492   0.06305969
3548.00   1.99296212   0.06092857
3550.00   2.08518028   0.06219066
3552.00   2.09732223   0.06271724
3554.00   2.12004900   0.06213023
3556.00   2.25000167   0.06266001
3558.00   2.22280407   0.06261030
3560.00   2.28372502   0.06260376
3562.00   2.08818102   0.06064843
3564.00   2.12550616   0.06031591
3566.00   2.26365733   0.06145621
3568.00   2.28697658   0.06098298
3570.00   2.33545256   0.06109942
3572.00   2.29956174   0.06079647
3574.00   2.37390876   0.06112082
3576.00   2.44140601   0.06151061
3578.00   2.36678529   0.06059868
3580.00   2.38209844   0.05990131
3582.00   2.41308069   0.06040420
3584.00   2.47195673   0.06023297
3586.00   2.46201992   0.05970526
3588.00   2.58047342   0.06108895
3590.00   2.50993204   0.06028523
3592.00   2.58433437   0.06035160
3594.00   2.51126790   0.05994657
3596.00   2.66830754   0.06120599
3598.00   2.57775092   0.05996282
3600.00   2.64311814   0.06018442
3602.00   2.52007890   0.05913577
3604.00   2.63721967   0.05941202
3606.00   2.62597919   0.05915908
3608.00   2.78698349   0.05969651
3610.00   2.59679031   0.05781247
3612.00   2.64329767   0.05859778
3614.00   2.68627954   0.05920226
3616.00   2.73296642   0.05949274
3618.00   2.71203661   0.05890993
3620.00   2.73144269   0.05851673
3622.00   2.76735210   0.05881536
3624.00   2.80383921   0.05848549
3626.00   2.84611416   0.05893584
3628.00   2.83712792   0.05859853
3630.00   2.89046335   0.05878957
3632.00   2.98587871   0.05951111
3634.00   3.14504504   0.06018374
3636.00   2.97599792   0.05910484
3638.00   2.81827211   0.05754583
3640.00   2.88024616   0.05799830
3642.00   2.83350134   0.05767578
3644.00   2.79031730   0.05697650
3646.00   2.99726796   0.05828585
3648.00   2.94979501   0.05975688
3650.00   2.96602392   0.06156440
3652.00   3.08982754   0.06075796
3654.00   2.89772940   0.05862471
3656.00   2.95669460   0.05789302
3658.00   2.86308146   0.05606368
3660.00   2.88265467   0.05614805
3662.00   2.88563895   0.05684731
3664.00   2.78301549   0.05574318
3666.00   2.78796244   0.05441157
3668.00   2.85450459   0.05404693
3670.00   2.71168661   0.05281873
3672.00   2.80512381   0.05351193
3674.00   2.69219661   0.05229079
3676.00   2.72979474   0.05221269
3678.00   2.77695394   0.05251803
3680.00   2.81502581   0.05247925
3682.00   2.82641864   0.05228746
3684.00   2.80405664   0.05215861
3686.00   2.81908536   0.05186676
3688.00   2.84190750   0.05191503
3690.00   2.85521364   0.05190604
3692.00   2.86898637   0.05210539
3694.00   2.90750289   0.05211280
3696.00   2.95245218   0.05225203
3698.00   2.89914989   0.05216573
3700.00   2.92392039   0.05183584
3702.00   2.86347008   0.05132551
3704.00   3.01698422   0.05234501
3706.00   3.10252023   0.05234350
3708.00   3.00519037   0.05167338
3710.00   3.00502229   0.05134523
3712.00   2.99497342   0.05111005
3714.00   2.98956561   0.05182593
3716.00   3.00734377   0.05080841
3718.00   3.02926803   0.05072380
3720.00   3.02487636   0.05038961
3722.00   3.01700759   0.05024963
3724.00   3.06791425   0.05074519
3726.00   3.00375581   0.05013281
3728.00   2.96601748   0.05021570
3730.00   3.03941035   0.05027933
3732.00   2.95943737   0.04943266
3734.00   2.86790800   0.04865882
3736.00   2.83248425   0.04813963
3738.00   2.79276896   0.04802928
3740.00   2.81285644   0.04835100
3742.00   2.64911389   0.04693730
3744.00   2.60855389   0.04614324
3746.00   2.60035777   0.04574772
3748.00   2.39112663   0.04411907
3750.00   2.30670238   0.04355436
3752.00   2.26486850   0.04310860
3754.00   2.24875879   0.04290094
3756.00   2.14836168   0.04202415
3758.00   2.10943937   0.04149990
3760.00   2.04949450   0.04113423
3762.00   2.00122118   0.04047610
3764.00   1.99563336   0.04044643
3766.00   1.88380694   0.03916815
3768.00   1.84494925   0.03880164
3770.00   1.84482765   0.03867050
3772.00   1.75277090   0.03816441
3774.00   1.73587120   0.03798988
3776.00   1.73033762   0.03759799
3778.00   1.68350387   0.03698884
3780.00   1.59079516   0.03605772
3782.00   1.58131826   0.03604798
3784.00   1.59856355   0.03614691
3786.00   1.64783454   0.03625598
3788.00   1.54609394   0.03520740
3790.00   1.58279824   0.03578179
3792.00   1.62196958   0.03658066
3794.00   1.68587017   0.03768992
3796.00   1.67597651   0.03819908
3798.00   1.53118408   0.03690851
3800.00   1.42544854   0.03480893
3802.00   1.53508162   0.03494127
3804.00   1.57995892   0.03521288
3806.00   1.61967218   0.03521331
3808.00   1.60866368   0.03510498
3810.00   1.56494033   0.03459270
3812.00   1.58905828   0.03506295
3814.00   1.63320708   0.03512893
3816.00   1.60032713   0.03444005
3818.00   1.54569709   0.03396008
3820.00   1.57741439   0.03389634
3822.00   1.53905451   0.03375283
3824.00   1.54159188   0.03376178
3826.00   1.55897808   0.03377129
3828.00   1.59197009   0.03417563
3830.00   1.52103353   0.03376405
3832.00   1.55404282   0.03375458
3834.00   1.56386638   0.03364112
3836.00   1.54800653   0.03323355
3838.00   1.45630491   0.03221194
3840.00   1.47670674   0.03225421
3842.00   1.49797690   0.03256154
3844.00   1.50560308   0.03267816
3846.00   1.48586655   0.03258076
3848.00   1.44037390   0.03222378
3850.00   1.45667291   0.03219364
3852.00   1.46669769   0.03203912
3854.00   1.40992832   0.03168251
3856.00   1.40585470   0.03146144
3858.00   1.32961762   0.03049345
3860.00   1.34964073   0.03043638
3862.00   1.31276262   0.03041604
3864.00   1.41192937   0.03105283
3866.00   1.33378243   0.03043362
3868.00   1.40045393   0.03062761
3870.00   1.32506704   0.02977045
3872.00   1.43132532   0.03064044
3874.00   1.42829788   0.03106146
3876.00   1.41943038   0.03093577
3878.00   1.44771779   0.03086029
3880.00   1.44004881   0.03064144
3882.00   1.50342512   0.03102696
3884.00   1.43726540   0.03067829
3886.00   1.53423178   0.03123390
3888.00   1.52788782   0.03117252
3890.00   1.57558537   0.03167605
3892.00   1.53780150   0.03132107
3894.00   1.59738636   0.03178122
3896.00   1.62624919   0.03203393
3898.00   1.62700069   0.03174887
3900.00   1.68333006   0.03236148
3902.00   1.76684821   0.03269642
3904.00   1.78601027   0.03329422
3906.00   1.81970286   0.03366072
3908.00   1.89145148   0.03436582
3910.00   1.91918266   0.03483795
3912.00   2.05077553   0.03569314
3914.00   2.04119992   0.03538650
3916.00   2.07239032   0.03519667
3918.00   2.17401338   0.03553598
3920.00   2.16671205   0.03530106
3922.00   2.21414566   0.03542270
3924.00   2.30841708   0.03597045
3926.00   2.39651918   0.03649636
3928.00   2.41452289   0.03643932
3930.00   2.38537455   0.03597601
3932.00   2.30859756   0.03561322
3934.00   2.42744184   0.03634368
3936.00   2.73056865   0.03803528
3938.00   2.86007094   0.03896956
3940.00   2.98784280   0.03995134
3942.00   3.02427959   0.04022374
3944.00   3.11263394   0.04062226
3946.00   3.14771104   0.04073726
3948.00   3.16891003   0.04078898
3950.00   3.40445065   0.04182081
3952.00   3.39813638   0.04174597
3954.00   3.46327949   0.04201780
3956.00   3.46904778   0.04176389
3958.00   3.57869458   0.04222324
3960.00   3.55274677   0.04218037
3962.00   3.56203127   0.04209122
3964.00   3.49938750   0.04132940
3966.00   3.42626238   0.04074656
3968.00   3.55728197   0.04131902
3970.00   3.65178466   0.04190126
3972.00   3.81095767   0.04266152
3974.00   3.80261087   0.04282831
3976.00   3.90138102   0.04331140
3978.00   3.81477356   0.04286012
3980.00   3.89340901   0.04342179
3982.00   3.95269418   0.04346583
3984.00   3.88158774   0.04301772
3986.00   3.88842511   0.04298667
3988.00   3.91332626   0.04305070
3990.00   3.99170303   0.04324771
3992.00   4.02711773   0.04334202
3994.00   3.94799328   0.04306645
3996.00   3.96848202   0.04320750
3998.00   4.02684927   0.04319046
4000.00   4.02210331   0.04298002
4002.00   4.03081751   0.04295516
4004.00   3.75141883   0.04146210
4006.00   3.84133244   0.04164043
4008.00   3.97263861   0.04233095
4010.00   4.01169872   0.04264847
4012.00   4.05920124   0.04272844
4014.00   4.02680302   0.04260444
4016.00   4.05039692   0.04265573
4018.00   4.03225851   0.04265682
4020.00   3.92798352   0.04247260
4022.00   3.89018583   0.04241949
4024.00   3.89919281   0.04213025
4026.00   3.83529735   0.04159043
4028.00   3.81204796   0.04115733
4030.00   3.80081153   0.04105242
4032.00   3.70316029   0.04043462
4034.00   3.65578127   0.04002014
4036.00   3.65230298   0.03990100
4038.00   3.60114121   0.03955312
4040.00   3.43912268   0.03864329
4042.00   3.36933351   0.03847789
4044.00   3.33982682   0.04044874
4046.00   3.37999249   0.04281285
4048.00   3.24479127   0.04136402
4050.00   3.20885420   0.03827455
4052.00   3.17710805   0.03736869
4054.00   3.16477370   0.03726083
4056.00   3.09149885   0.03673271
4058.00   3.01336455   0.03625314
4060.00   2.90319943   0.03566313
4062.00   2.97686458   0.03591612
4064.00   2.98688889   0.03587108
4066.00   2.94685459   0.03561262
4068.00   2.93826580   0.03559558
4070.00   2.91848612   0.03530204
4072.00   2.91982603   0.03537909
4074.00   2.86017299   0.03509178
4076.00   2.89510679   0.03570714
4078.00   2.93646526   0.03585702
4080.00   2.92427039   0.03555257
4082.00   2.92437506   0.03537841
4084.00   2.98311067   0.03547112
4086.00   2.91134143   0.03509348
4088.00   3.00150990   0.03532873
4090.00   3.04066133   0.03532983
4092.00   2.98758793   0.03503843
4094.00   2.98693299   0.03497942
4096.00   3.01961470   0.03507540
4098.00   3.15495205   0.03548729
4100.00   3.21675181   0.03557824
4102.00   3.20369148   0.03536817
4104.00   3.24834418   0.03561677
4106.00   3.28910923   0.03577057
4108.00   3.36459899   0.03616535
4110.00   3.37611604   0.03614698
4112.00   3.41142511   0.03630544
4114.00   3.41362500   0.03622654
4116.00   3.38627219   0.03608388
4118.00   3.42175174   0.03603850
4120.00   3.38361049   0.03581814
4122.00   3.48897767   0.03632553
4124.00   3.52136660   0.03640016
4126.00   3.50865531   0.03624922
4128.00   3.60534096   0.03671957
4130.00   3.66341734   0.03693869
4132.00   3.66087222   0.03679829
4134.00   3.68690205   0.03693819
4136.00   3.72421002   0.03697784
4138.00   3.77627087   0.03716055
4140.00   3.75805569   0.03699945
4142.00   3.78584409   0.03695223
4144.00   3.81337166   0.03692011
4146.00   3.82185936   0.03689524
4148.00   3.89279938   0.03712592
4150.00   3.91475368   0.03716087
4152.00   3.86456847   0.03708557
4154.00   3.85084605   0.03693999
4156.00   3.84696245   0.03689166
4158.00   3.94155812   0.03702299
4160.00   3.83601427   0.03667491
4162.00   3.82622886   0.03669029
4164.00   3.90429592   0.03716475
4166.00   3.91606355   0.03703558
4168.00   3.86780214   0.03678026
4170.00   3.92541552   0.03675067
4172.00   3.93311167   0.03659098
4174.00   3.91186047   0.03632397
4176.00   3.89507675   0.03630430
4178.00   3.79939842   0.03602391
4180.00   3.85404110   0.03601348
4182.00   3.82950759   0.03582757
4184.00   3.79238343   0.03559248
4186.00   3.87213087   0.03587655
4188.00   3.88252139   0.03587897
4190.00   3.82364488   0.03575775
4192.00   3.69909096   0.03518754
4194.00   3.81549931   0.03560738
4196.00   3.82623720   0.03550851
4198.00   3.81418347   0.03542585
4200.00   3.80011559   0.03531289
4202.00   3.75649595   0.03510478
4204.00   3.86543107   0.03546853
4206.00   3.71417952   0.03493384
4208.00   3.71116805   0.03490700
4210.00   3.63460279   0.03461806
4212.00   3.70764637   0.03477726
4214.00   3.70472097   0.03475125
4216.00   3.63011122   0.03439866
4218.00   3.57444119   0.03411829
4220.00   3.57090926   0.03403487
4222.00   3.61123610   0.03407457
4224.00   3.53735995   0.03367634
4226.00   3.57726955   0.03375063
4228.00   3.52587438   0.03356100
4230.00   3.58997631   0.03383527
4232.00   3.53353810   0.03353565
4234.00   3.52156591   0.03350880
4236.00   3.48627448   0.03334440
4238.00   3.49023724   0.03327688
4240.00   3.52181244   0.03333617
4242.00   3.47372627   0.03300536
4244.00   3.55353308   0.03351776
4246.00   3.47702122   0.03345239
4248.00   3.53489971   0.03349826
4250.00   3.54583931   0.03323973
4252.00   3.54298377   0.03296197
4254.00   3.58339143   0.03315132
4256.00   3.54925609   0.03293581
4258.00   3.61570406   0.03317630
4260.00   3.63122201   0.03320350
4262.00   3.61637926   0.03305298
4264.00   3.58087373   0.03294191
4266.00   3.56196404   0.03273637
4268.00   3.54170418   0.03267582
4270.00   3.59017920   0.03275693
4272.00   3.52906370   0.03245918
4274.00   3.42742300   0.03210381
4276.00   3.42955256   0.03209300
4278.00   3.38591480   0.03189874
4280.00   3.38645315   0.03182374
4282.00   3.37995529   0.03174819
4284.00   3.35961914   0.03164768
4286.00   3.34358692   0.03153184
4288.00   3.28495193   0.03126857
4290.00   3.27739310   0.03113621
4292.00   3.20987582   0.03093199
4294.00   3.15353560   0.03071870
4296.00   3.20641923   0.03087435
4298.00   3.09908009   0.03029047
4300.00   3.10721064   0.03027921
4302.00   3.08815527   0.03013333
4304.00   3.06000972   0.02997878
4306.00   3.05955768   0.03008786
4308.00   2.98722982   0.02970767
4310.00   3.00359058   0.02981889
4312.00   2.96238899   0.02985745
4314.00   2.90824342   0.02977086
4316.00   2.97910357   0.03005812
4318.00   2.92639041   0.02983332
4320.00   2.81554508   0.02935119
4322.00   2.87548590   0.02950946
4324.00   2.90280604   0.02947047
4326.00   2.89962053   0.02935422
4328.00   2.79923034   0.02891872
4330.00   2.79202461   0.02894834
4332.00   2.77669740   0.02887559
4334.00   2.71118569   0.02849346
4336.00   2.76107287   0.02864719
4338.00   2.72274661   0.02854121
4340.00   2.72698832   0.02843136
4342.00   2.69170570   0.02835956
4344.00   2.63029504   0.02821117
4346.00   2.64576197   0.02838920
4348.00   2.56265211   0.02810395
4350.00   2.47423649   0.02750136
4352.00   2.44906378   0.02731782
4354.00   2.40792656   0.02763794
4356.00   2.37799883   0.03150377
4358.00   2.35963368   0.03411078
4360.00   2.30348754   0.03207019
4362.00   2.25939202   0.02839128
4364.00   2.24293613   0.02674915
4366.00   2.24035215   0.02633159
4368.00   2.23535967   0.02622688
4370.00   2.18240929   0.02591400
4372.00   2.15685415   0.02591739
4374.00   2.16618204   0.02595936
4376.00   2.09532189   0.02566889
4378.00   2.11753345   0.02546585
4380.00   2.10164571   0.02522571
4382.00   2.02731419   0.02475294
4384.00   1.99568701   0.02446356
4386.00   2.02463913   0.02462318
4388.00   2.01909161   0.02457556
4390.00   1.96932471   0.02448024
4392.00   1.97719252   0.02443346
4394.00   1.95829737   0.02434173
4396.00   1.88455236   0.02396776
4398.00   1.90054381   0.02403269
4400.00   1.85181236   0.02409717
4402.00   1.91785705   0.02424500
4404.00   1.96201515   0.02430066
4406.00   2.00344253   0.02446221
4408.00   2.04683876   0.02465349
4410.00   2.10480666   0.02499896
4412.00   2.10759139   0.02498797
4414.00   2.05899286   0.02471319
4416.00   2.10157919   0.02495502
4418.00   2.18308115   0.02529151
4420.00   2.19202161   0.02531062
4422.00   2.19033718   0.02530747
4424.00   2.15839624   0.02501190
4426.00   2.15674591   0.02498564
4428.00   2.12030363   0.02475189
4430.00   2.10662746   0.02480663
4432.00   2.16261864   0.02501313
4434.00   2.16935468   0.02501375
4436.00   2.15629482   0.02498821
4438.00   2.21572924   0.02529181
4440.00   2.21907806   0.02527986
4442.00   2.22832656   0.02533964
4444.00   2.20915151   0.02528263
4446.00   2.23066282   0.02541960
4448.00   2.22952628   0.02543067
4450.00   2.36071086   0.02594902
4452.00   2.27154231   0.02555002
4454.00   2.26426196   0.02550065
4456.00   2.27287889   0.02548627
4458.00   2.27698970   0.02549343
4460.00   2.33982015   0.02574593
4462.00   2.30396056   0.02560892
4464.00   2.30703044   0.02557406
4466.00   2.30274343   0.02552870
4468.00   2.34477401   0.02575920
4470.00   2.35704422   0.02582365
4472.00   2.39525628   0.02597241
4474.00   2.36056447   0.02583773
4476.00   2.42025447   0.02609955
4478.00   2.43340659   0.02610640
4480.00   2.51021171   0.02642862
4482.00   2.50781035   0.02632095
4484.00   2.45566344   0.02622093
4486.00   2.55368400   0.02664914
4488.00   2.54310846   0.02647419
4490.00   2.50920796   0.02641120
4492.00   2.53233337   0.02660484
4494.00   2.49972320   0.02635147
4496.00   2.49855471   0.02631914
4498.00   2.44816351   0.02616675
4500.00   2.39020610   0.02585826
4502.00   2.38627815   0.02582462
4504.00   2.41475987   0.02593042
4506.00   2.37150383   0.02573836
4508.00   2.37844181   0.02571463
4510.00   2.39982128   0.02578271
4512.00   2.37861204   0.02564209
4514.00   2.41016579   0.02583496
4516.00   2.38093400   0.02562028
4518.00   2.38351274   0.02562281
4520.00   2.40573835   0.02570705
4522.00   2.41133761   0.02571138
4524.00   2.42241168   0.02566057
4526.00   2.42227125   0.02562972
4528.00   2.47020364   0.02575162
4530.00   2.44485617   0.02574438
4532.00   2.44776249   0.02583313
4534.00   2.50672126   0.02591006
4536.00   2.49003768   0.02591512
4538.00   2.47851205   0.02583798
4540.00   2.51964116   0.02604318
4542.00   2.53103089   0.02610242
4544.00   2.57656288   0.02625007
4546.00   2.59738708   0.02633370
4548.00   2.55935884   0.02614843
4550.00   2.71738291   0.02669751
4552.00   2.76274920   0.02687658
4554.00   2.77708626   0.02690575
4556.00   2.76961732   0.02695866
4558.00   2.78187156   0.02704306
4560.00   2.86878586   0.02728846
4562.00   2.89796925   0.02741191
4564.00   2.97850251   0.02760039
4566.00   2.95011449   0.02751991
4568.00   2.99655843   0.02773014
4570.00   3.01350212   0.02776037
4572.00   3.04342890   0.02789841
4574.00   3.04063320   0.02785145
4576.00   3.04473329   0.02795460
4578.00   3.04419088   0.02784629
4580.00   3.07910419   0.02797289
4582.00   3.12302732   0.02809253
4584.00   3.13834786   0.02814047
4586.00   3.11477613   0.02802832
4588.00   3.11927104   0.02800181
4590.00   3.18858933   0.02830078
4592.00   3.12978935   0.02804035
