# File created by shivutils (I.Shivvers)
# wl(A)   flm    er(optional)
3438.00   13.77561474   0.34935355
3440.00   14.92825985   0.36373538
3442.00   14.46848011   0.35698318
3444.00   14.53823185   0.35670274
3446.00   13.78425884   0.35168752
3448.00   14.55660915   0.35754061
3450.00   14.97409058   0.36521333
3452.00   14.38397408   0.36076567
3454.00   14.84002590   0.36655185
3456.00   14.87152958   0.36749554
3458.00   14.91476059   0.36829019
3460.00   14.96008492   0.37135762
3462.00   14.92998123   0.37006441
3464.00   14.43155670   0.36800805
3466.00   14.33990288   0.36726075
3468.00   13.84717655   0.36309910
3470.00   14.82548618   0.37644660
3472.00   15.23085880   0.37979046
3474.00   14.79300690   0.37665254
3476.00   15.55135155   0.38695693
3478.00   16.27540207   0.39604396
3480.00   16.09924316   0.39425474
3482.00   17.04492760   0.40585896
3484.00   17.34459877   0.41043630
3486.00   17.17425156   0.40591726
3488.00   18.57462692   0.42014450
3490.00   18.69046974   0.42086023
3492.00   18.52171516   0.42014104
3494.00   19.32878304   0.42859623
3496.00   19.90748024   0.43182668
3498.00   19.91051483   0.43216789
3500.00   20.41853905   0.43821916
3502.00   21.20661545   0.44662875
3504.00   21.08296394   0.44431543
3506.00   20.70569801   0.43865600
3508.00   21.02040482   0.44194499
3510.00   21.28341484   0.44368324
3512.00   21.41627502   0.44312671
3514.00   21.31818008   0.44455886
3516.00   21.80541611   0.44723758
3518.00   21.51564598   0.44209644
3520.00   21.97397614   0.44526505
3522.00   22.68823433   0.45333871
3524.00   22.64194489   0.45160946
3526.00   23.36355400   0.45541686
3528.00   23.10817528   0.45201451
3530.00   23.24367905   0.45140028
3532.00   24.00211334   0.45893458
3534.00   23.19038391   0.45183644
3536.00   23.44997215   0.44949290
3538.00   24.22156715   0.45457712
3540.00   23.11085892   0.44706315
3542.00   23.48185158   0.44876161
3544.00   23.76510048   0.44927192
3546.00   24.15711975   0.45211199
3548.00   23.10908890   0.44293982
3550.00   23.01481247   0.44071332
3552.00   24.20645714   0.44665349
3554.00   24.30306625   0.44544488
3556.00   24.69281387   0.44905972
3558.00   24.67274284   0.44496891
3560.00   24.28984070   0.44135562
3562.00   25.14658546   0.44626564
3564.00   25.11422157   0.44290468
3566.00   24.96333504   0.44021043
3568.00   25.90985107   0.44530475
3570.00   26.11265945   0.44320801
3572.00   26.63932419   0.44639829
3574.00   26.20950127   0.44147143
3576.00   25.36597252   0.43286571
3578.00   25.40801048   0.43121788
3580.00   24.04209137   0.41926432
3582.00   25.37198639   0.42709002
3584.00   23.95456314   0.41285586
3586.00   23.88053322   0.41022393
3588.00   23.59988594   0.40584707
3590.00   23.20710945   0.40177208
3592.00   23.13083267   0.39862218
3594.00   23.38070488   0.39929399
3596.00   22.72529030   0.39188829
3598.00   22.97343254   0.39128312
3600.00   23.08962822   0.39000317
3602.00   22.31596947   0.38360405
3604.00   22.68527794   0.38434619
3606.00   23.16788101   0.38526189
3608.00   23.15117455   0.38263851
3610.00   24.41741943   0.39239275
3612.00   23.58423424   0.38490739
3614.00   23.97075844   0.38700816
3616.00   24.39000130   0.38708147
3618.00   24.54515457   0.38619375
3620.00   24.74864960   0.38635027
3622.00   25.46349144   0.38840503
3624.00   26.01882172   0.38952935
3626.00   26.58387756   0.39286816
3628.00   26.28960800   0.39048219
3630.00   27.86897659   0.39886025
3632.00   27.94692421   0.39844564
3634.00   27.52250481   0.39285249
3636.00   28.08858109   0.39465699
3638.00   28.77742004   0.39678872
3640.00   27.94785118   0.39017940
3642.00   28.16051102   0.38926536
3644.00   28.44491577   0.38935846
3646.00   28.37156868   0.38772690
3648.00   27.89458084   0.38629857
3650.00   28.22229195   0.38605341
3652.00   28.23543739   0.38409930
3654.00   27.95986176   0.37964150
3656.00   26.46622086   0.36755666
3658.00   26.52071762   0.36530143
3660.00   25.38879013   0.35789052
3662.00   25.36735916   0.35620835
3664.00   24.67459488   0.34960788
3666.00   24.26951599   0.34301093
3668.00   23.03408623   0.33319014
3670.00   22.47677803   0.32807314
3672.00   22.28776550   0.32543117
3674.00   21.23415756   0.31717476
3676.00   21.00371933   0.31453350
3678.00   19.47415733   0.30217537
3680.00   19.26291084   0.30001861
3682.00   19.17129707   0.29725942
3684.00   18.29179192   0.28999719
3686.00   17.83289719   0.28529373
3688.00   17.41513634   0.28173700
3690.00   17.54560280   0.28108183
3692.00   17.55479050   0.28050095
3694.00   16.50482750   0.27166116
3696.00   16.68456459   0.27218497
3698.00   16.33227921   0.26826572
3700.00   16.39939308   0.26792580
3702.00   16.34135246   0.26544544
3704.00   15.93640614   0.26268753
3706.00   16.00833893   0.26244155
3708.00   15.29936790   0.25621334
3710.00   15.44368935   0.25577676
3712.00   15.73557186   0.25756946
3714.00   15.72732162   0.25580627
3716.00   15.17513847   0.25146693
3718.00   15.12267113   0.24943198
3720.00   14.67357063   0.24512281
3722.00   14.99826622   0.24626918
3724.00   14.83232594   0.24562228
3726.00   14.97632504   0.24531855
3728.00   15.18315125   0.24635150
3730.00   15.28526211   0.24642703
3732.00   15.49434090   0.24746704
3734.00   15.25350952   0.24546358
3736.00   15.01091480   0.24220835
3738.00   15.34314823   0.24346386
3740.00   14.94219303   0.24136056
3742.00   14.79666615   0.23921925
3744.00   14.66314983   0.23736843
3746.00   14.82160664   0.23725407
3748.00   14.26887608   0.23257391
3750.00   14.36309242   0.23214917
3752.00   13.98432350   0.22844690
3754.00   14.58036518   0.23180220
3756.00   14.02093315   0.22755273
3758.00   13.48279381   0.22240733
3760.00   13.70601273   0.22355975
3762.00   14.00933933   0.22480457
3764.00   13.72946167   0.22131214
3766.00   13.44134521   0.21969211
3768.00   13.55705929   0.21952480
3770.00   13.43407631   0.21814898
3772.00   13.36480713   0.21712439
3774.00   13.53574467   0.21784823
3776.00   13.36139297   0.21598883
3778.00   13.06063557   0.21371901
3780.00   13.11120701   0.21321984
3782.00   13.01468277   0.21111931
3784.00   13.22347832   0.21192490
3786.00   12.99082661   0.20956013
3788.00   13.22530174   0.21075593
3790.00   13.43338299   0.21249083
3792.00   12.39456749   0.20500073
3794.00   12.80141544   0.20640285
3796.00   13.15497780   0.20756719
3798.00   13.29625702   0.20788249
3800.00   13.25513935   0.20752214
3802.00   13.18134499   0.20604412
3804.00   13.19511127   0.20536667
3806.00   13.54572392   0.20690012
3808.00   13.80958366   0.20878072
3810.00   13.62102032   0.20625411
3812.00   13.86013126   0.20769575
3814.00   14.05836010   0.20898190
3816.00   14.52155399   0.21146922
3818.00   15.30715752   0.21579541
3820.00   15.44116783   0.21642338
3822.00   15.77881336   0.21731313
3824.00   15.84751797   0.21769005
3826.00   16.49056625   0.22105269
3828.00   16.72420692   0.22184283
3830.00   17.22224808   0.22431546
3832.00   17.77665710   0.22728576
3834.00   17.65283394   0.22601828
3836.00   18.85048294   0.23233081
3838.00   18.64462471   0.23037557
3840.00   19.28200340   0.23282264
3842.00   19.38543320   0.23308913
3844.00   20.23146057   0.23702887
3846.00   20.29200554   0.23706403
3848.00   21.34404373   0.24170369
3850.00   21.23506737   0.24065541
3852.00   22.00881004   0.24389684
3854.00   23.03665733   0.24844712
3856.00   23.17770958   0.24855624
3858.00   23.72294426   0.25118029
3860.00   23.96423531   0.25193673
3862.00   24.14601135   0.25280079
3864.00   24.69872665   0.25419596
3866.00   25.08016586   0.26168710
3868.00   26.49215317   0.26170075
3870.00   26.85390282   0.26281786
3872.00   27.82378769   0.26673102
3874.00   28.30755997   0.26887482
3876.00   28.31853676   0.26869643
3878.00   29.23101807   0.27201846
3880.00   29.90462875   0.27440238
3882.00   29.97204590   0.27358150
3884.00   30.15290260   0.27409694
3886.00   30.38396645   0.27450499
3888.00   30.82808113   0.27624372
3890.00   31.09280014   0.27672389
3892.00   31.36028862   0.27757525
3894.00   31.61108589   0.27773699
3896.00   32.08038712   0.27968329
3898.00   32.15946579   0.27949616
3900.00   32.61088181   0.28057507
3902.00   32.86977005   0.28132093
3904.00   33.78126526   0.28475490
3906.00   33.78662109   0.28508294
3908.00   34.14328766   0.28661045
3910.00   34.59418106   0.28779128
3912.00   34.80301285   0.28784490
3914.00   34.80905533   0.28685981
3916.00   34.87096024   0.28622732
3918.00   34.57581329   0.28443390
3920.00   35.16903687   0.28545576
3922.00   35.12669373   0.28492156
3924.00   35.10932159   0.28413612
3926.00   35.55234146   0.28542578
3928.00   34.56823349   0.28084126
3930.00   34.66473007   0.28081006
3932.00   32.95730209   0.27354559
3934.00   33.10905075   0.27347606
3936.00   34.47499847   0.27815074
3938.00   34.34892654   0.27690616
3940.00   33.98710251   0.27487832
3942.00   33.82931900   0.27426565
3944.00   33.36377716   0.27207899
3946.00   33.28553391   0.27047798
3948.00   32.74598694   0.26765510
3950.00   32.53672409   0.26599056
3952.00   31.76371956   0.26248392
3954.00   31.38640022   0.26086923
3956.00   32.24802780   0.26375988
3958.00   31.26153755   0.25974658
3960.00   30.66098213   0.25731057
3962.00   30.15187073   0.25507817
3964.00   30.33855629   0.25486833
3966.00   29.36993790   0.25062209
3968.00   28.41496468   0.24612129
3970.00   28.97824860   0.24815820
3972.00   29.02641296   0.24811409
3974.00   28.35656738   0.24488270
3976.00   28.29095078   0.24385999
3978.00   27.51894760   0.24040738
3980.00   27.38448715   0.23923279
3982.00   27.58060455   0.23981991
3984.00   27.26446342   0.23754916
3986.00   27.06359863   0.23626749
3988.00   26.69760895   0.23459597
3990.00   26.86315536   0.23481460
3992.00   27.43190956   0.23663861
3994.00   26.72259521   0.23368748
3996.00   27.34746552   0.23623011
3998.00   26.69561958   0.23319623
4000.00   26.86318016   0.23328890
4002.00   27.32988358   0.23432307
4004.00   27.53075600   0.23501162
4006.00   27.50845337   0.23468301
4008.00   27.23212814   0.23303641
4010.00   27.97820282   0.23537590
4012.00   27.62003326   0.23343053
4014.00   27.88433075   0.23420659
4016.00   28.18925858   0.23461656
4018.00   28.32920456   0.23558187
4020.00   28.08344841   0.23408537
4022.00   28.78428650   0.23637252
4024.00   28.69227219   0.23561500
4026.00   29.61502647   0.23792377
4028.00   30.01626205   0.23877373
4030.00   29.72233200   0.23743822
4032.00   30.28336525   0.23861855
4034.00   30.44454384   0.23874894
4036.00   30.45280838   0.23859788
4038.00   31.05864525   0.23993205
4040.00   31.68562126   0.24172473
4042.00   31.90646744   0.24233560
4044.00   32.05582809   0.24576792
4046.00   31.93935585   0.24754418
4048.00   31.82033539   0.24439500
4050.00   31.79936600   0.24060933
4052.00   32.40954971   0.24185468
4054.00   32.76477051   0.24305439
4056.00   32.95904922   0.24294277
4058.00   33.59017563   0.24455430
4060.00   33.57186890   0.24379210
4062.00   33.48543930   0.24349277
4064.00   34.28355789   0.24570787
4066.00   34.58674240   0.24657065
4068.00   34.98051834   0.24751958
4070.00   34.83725357   0.24681106
4072.00   35.18497086   0.24741006
4074.00   35.04102707   0.24673474
4076.00   34.97205734   0.24708012
4078.00   35.46041489   0.24825327
4080.00   35.43085098   0.24754198
4082.00   35.66337204   0.24792393
4084.00   35.59600449   0.24739438
4086.00   35.48188400   0.24681699
4088.00   35.65448380   0.24714556
4090.00   36.10444641   0.24764667
4092.00   36.26744461   0.24803618
4094.00   36.00633240   0.24713773
4096.00   36.65230942   0.24832734
4098.00   36.70171356   0.24889509
4100.00   36.91355896   0.24954210
4102.00   36.87142563   0.24882770
4104.00   36.91996765   0.24860926
4106.00   37.33178329   0.24947731
4108.00   36.90478516   0.24788426
4110.00   37.06386566   0.24798021
4112.00   37.20708466   0.24784252
4114.00   36.76906967   0.24606338
4116.00   36.87942505   0.24595357
4118.00   36.85474777   0.24548574
4120.00   37.56925201   0.24712621
4122.00   36.83594131   0.24421678
4124.00   37.31377029   0.24537204
4126.00   37.23918533   0.24483903
4128.00   37.02278137   0.24367082
4130.00   37.23846817   0.24364802
4132.00   36.58658981   0.24151361
4134.00   36.66015625   0.24080665
4136.00   36.29539108   0.23892424
4138.00   36.23381805   0.23832333
4140.00   35.60838318   0.23569879
4142.00   35.36471558   0.23417668
4144.00   35.20352554   0.23284425
4146.00   34.86416626   0.23108901
4148.00   34.49758530   0.22932321
4150.00   34.62831497   0.22957218
4152.00   34.91008759   0.22993165
4154.00   34.11236572   0.22690763
4156.00   34.46327591   0.22726756
4158.00   34.47192383   0.22663778
4160.00   34.00932693   0.22527444
4162.00   33.54983139   0.22373500
4164.00   34.00493240   0.22512175
4166.00   33.94346237   0.22471258
4168.00   33.99622345   0.22447528
4170.00   33.96404648   0.22392757
4172.00   33.87919235   0.22368909
4174.00   33.31715775   0.22181661
4176.00   33.36805344   0.22205302
4178.00   34.06282806   0.22410424
4180.00   34.07642365   0.22390862
4182.00   34.03936005   0.22376041
4184.00   34.07656479   0.22339666
4186.00   34.27366638   0.22400889
4188.00   34.34495926   0.22375175
4190.00   34.47350311   0.22372927
4192.00   34.29276276   0.22271618
4194.00   34.33214188   0.22263302
4196.00   34.34313965   0.22230455
4198.00   33.88077164   0.22039975
4200.00   33.06299973   0.21761115
4202.00   32.88050842   0.21676803
4204.00   32.68350220   0.21571738
4206.00   31.90269852   0.21276867
4208.00   31.76963425   0.21183829
4210.00   31.00660706   0.20907894
4212.00   31.00620079   0.20854592
4214.00   30.33271599   0.20601034
4216.00   30.00034142   0.20428279
4218.00   30.30553436   0.20500122
4220.00   29.39248848   0.20148402
4222.00   29.14413071   0.20025779
4224.00   29.14005852   0.19966060
4226.00   28.96080971   0.19866322
4228.00   28.24678230   0.19624855
4230.00   28.06895065   0.19514260
4232.00   27.89010429   0.19409813
4234.00   27.59849358   0.19290160
4236.00   27.49225235   0.19213748
4238.00   27.06014061   0.19039343
4240.00   26.83532143   0.18876742
4242.00   26.69878960   0.18758194
4244.00   26.48410988   0.18703605
4246.00   26.10736084   0.18622091
4248.00   25.62503815   0.18401465
4250.00   26.24300766   0.18500356
4252.00   25.45332909   0.18188323
4254.00   25.64332771   0.18227173
4256.00   25.05522728   0.17967747
4258.00   24.19041824   0.17645729
4260.00   23.78967285   0.17462423
4262.00   23.41604233   0.17309789
4264.00   23.14792061   0.17178044
4266.00   22.85173035   0.17016993
4268.00   22.45821381   0.16850527
4270.00   21.99836922   0.16657627
4272.00   21.79011726   0.16535845
4274.00   21.47969818   0.16409348
4276.00   20.75244522   0.16139582
4278.00   20.31333160   0.15949370
4280.00   20.67086220   0.16068044
4282.00   20.04918289   0.15858211
4284.00   20.08090591   0.15856612
4286.00   19.66913223   0.15681927
4288.00   19.59811974   0.15636086
4290.00   19.74151802   0.15673985
4292.00   19.43660545   0.15548559
4294.00   19.51752472   0.15596850
4296.00   19.01893997   0.15452300
4298.00   18.92517853   0.15397064
4300.00   19.19890213   0.15490244
4302.00   18.94427872   0.15391870
4304.00   18.83750725   0.15359274
4306.00   19.06989861   0.15469965
4308.00   18.89876556   0.15383145
4310.00   19.02914238   0.15430658
4312.00   18.96752357   0.15464243
4314.00   19.02290726   0.15504807
4316.00   19.20718384   0.15503687
4318.00   19.33268547   0.15541004
4320.00   19.18739319   0.15485154
4322.00   19.44931602   0.15595794
4324.00   19.68365860   0.15673852
4326.00   19.79698563   0.15698381
4328.00   19.68705559   0.15640955
4330.00   20.10849762   0.15803416
4332.00   20.46569824   0.15916520
4334.00   20.64894295   0.16019228
4336.00   20.72181320   0.16056414
4338.00   20.99093437   0.16158545
4340.00   20.81867599   0.16081448
4342.00   21.13716507   0.16176151
4344.00   20.94310760   0.16110258
4346.00   20.69865417   0.16028000
4348.00   20.70589256   0.16030303
4350.00   20.52859306   0.15937734
4352.00   20.76402664   0.16023859
4354.00   20.51676941   0.16031283
4356.00   20.72093201   0.16658196
4358.00   20.45139503   0.16896796
4360.00   20.21572876   0.16448443
4362.00   19.89648056   0.15839189
4364.00   20.33687592   0.15803790
4366.00   20.38009453   0.15821798
4368.00   20.70868874   0.15864931
4370.00   20.86974525   0.15924063
4372.00   20.86698532   0.15891600
4374.00   20.68522453   0.15840966
4376.00   20.77117538   0.15860288
4378.00   20.48273087   0.15711287
4380.00   20.61681938   0.15737773
4382.00   20.76248550   0.15737391
4384.00   21.33277512   0.15936138
4386.00   21.64466286   0.16026400
4388.00   21.57561684   0.15956455
4390.00   21.55522346   0.15931846
4392.00   21.99066734   0.16065609
4394.00   22.33371735   0.16157857
4396.00   22.38133621   0.16158363
4398.00   22.62317085   0.16208427
4400.00   22.55640984   0.16192743
4402.00   22.98719025   0.16305275
4404.00   22.99798012   0.16264047
4406.00   22.93754959   0.16248776
4408.00   22.95800972   0.16248827
4410.00   23.09926033   0.16283609
4412.00   23.32945633   0.16389382
4414.00   22.58820343   0.16164652
4416.00   22.65269279   0.16197807
4418.00   22.49827766   0.16102716
4420.00   22.70793343   0.16156457
4422.00   22.52136803   0.16069095
4424.00   22.78973198   0.16165310
4426.00   22.16207314   0.15980954
4428.00   22.56957245   0.16120705
4430.00   22.36188889   0.16064520
4432.00   22.62022972   0.16176969
4434.00   22.66017723   0.16162921
4436.00   22.88362694   0.16241930
4438.00   22.58668137   0.16155390
4440.00   22.37705421   0.16097361
4442.00   22.55322456   0.16139005
4444.00   22.53685379   0.16142605
4446.00   22.31202126   0.16061398
4448.00   22.19813728   0.16011767
4450.00   22.84380150   0.16204789
4452.00   22.75104713   0.16188271
4454.00   22.72033310   0.16155052
4456.00   22.80192375   0.16172248
4458.00   23.08185768   0.16262241
4460.00   23.64728355   0.16419086
4462.00   23.81853676   0.16500308
4464.00   24.02283096   0.16546388
4466.00   24.22471428   0.16594812
4468.00   24.78038216   0.16746524
4470.00   24.89434814   0.16754518
4472.00   25.54750061   0.16943055
4474.00   26.28871155   0.17138346
4476.00   26.06399345   0.17037170
4478.00   26.10803795   0.17055815
4480.00   26.90916061   0.17265081
4482.00   27.13303375   0.17322473
4484.00   27.16201782   0.17325911
4486.00   27.60545731   0.17440729
4488.00   27.83601952   0.17489201
4490.00   27.96979713   0.17515700
4492.00   28.36664391   0.17619996
4494.00   28.37198448   0.17614408
4496.00   28.79463768   0.17725866
4498.00   29.06480026   0.17794797
4500.00   29.27165794   0.17820625
4502.00   29.59144020   0.17908083
4504.00   29.41111374   0.17826171
4506.00   29.53330612   0.17879869
4508.00   29.95266724   0.17972676
4510.00   29.73191643   0.17879044
4512.00   29.70714569   0.17866172
4514.00   30.03262329   0.17942913
4516.00   30.09102631   0.17965710
4518.00   30.59678650   0.18111949
4520.00   30.29142761   0.18032795
4522.00   30.30783463   0.18018252
4524.00   30.58353043   0.18116455
4526.00   30.40805817   0.18062685
4528.00   30.44532585   0.18051641
4530.00   30.77376366   0.18153557
4532.00   30.48307037   0.18066254
4534.00   30.39226532   0.18022463
4536.00   30.73363113   0.18102768
4538.00   30.73502159   0.18114513
4540.00   30.52513504   0.18041137
4542.00   30.63009453   0.18055768
4544.00   30.67655945   0.18063374
4546.00   30.05801010   0.17881732
4548.00   30.07971191   0.17841682
4550.00   30.65814781   0.17995514
4552.00   30.27345467   0.17875975
4554.00   29.94449043   0.17784986
4556.00   29.94767761   0.17788301
4558.00   29.83114624   0.17743343
4560.00   29.65087891   0.17673202
4562.00   29.49752426   0.17625093
4564.00   29.59504890   0.17632239
4566.00   29.15863609   0.17463514
4568.00   29.57831001   0.17570055
4570.00   29.43772316   0.17512693
4572.00   28.92660332   0.17361100
4574.00   29.45706367   0.17487355
