# File created by shivutils (I.Shivvers)
# wl(A)   flm    er(optional)
3438.00   12.38793468   0.32600507
3440.00   13.06294346   0.32873574
3442.00   13.01107121   0.33325300
3444.00   12.47296810   0.32787690
3446.00   13.03677177   0.33259389
3448.00   12.47292614   0.33642289
3450.00   11.89099884   0.33091575
3452.00   12.91108704   0.34282702
3454.00   12.88862514   0.34264702
3456.00   12.51205349   0.33922449
3458.00   12.77401829   0.34329340
3460.00   12.83556938   0.34496692
3462.00   12.83839417   0.34564742
3464.00   12.46242237   0.34244636
3466.00   12.56463623   0.34716097
3468.00   13.85476589   0.35837421
3470.00   14.17779827   0.36320066
3472.00   13.85966206   0.36110172
3474.00   14.18378258   0.36574402
3476.00   13.77681065   0.36519253
3478.00   13.82013226   0.36885393
3480.00   13.77248383   0.36917627
3482.00   14.24363518   0.37428361
3484.00   15.71489716   0.38714528
3486.00   15.96450329   0.38962501
3488.00   16.33334732   0.39021271
3490.00   16.32497597   0.39375985
3492.00   17.03838158   0.40007961
3494.00   17.77276993   0.40828097
3496.00   17.90816116   0.40751344
3498.00   18.52926445   0.41322207
3500.00   19.06142998   0.41985562
3502.00   19.89236259   0.42646417
3504.00   19.78414154   0.42388734
3506.00   19.42678261   0.42120892
3508.00   19.49646950   0.42172238
3510.00   20.25412369   0.42511141
3512.00   20.50164032   0.42647845
3514.00   20.20624352   0.42697158
3516.00   20.50064659   0.42843595
3518.00   20.12200165   0.42489067
3520.00   20.52071762   0.42779359
3522.00   21.67328453   0.43174300
3524.00   21.07536125   0.42751211
3526.00   21.80924797   0.43345252
3528.00   21.94737434   0.43276960
3530.00   22.28369331   0.43416944
3532.00   23.79211617   0.44291204
3534.00   22.84226608   0.43882725
3536.00   22.17567253   0.43168688
3538.00   22.60643005   0.43169156
3540.00   23.49387360   0.43936381
3542.00   22.63196373   0.43402374
3544.00   22.82157707   0.43445379
3546.00   22.90724373   0.43313739
3548.00   22.82500648   0.42985132
3550.00   22.27102280   0.42691705
3552.00   23.14672470   0.43072662
3554.00   23.49382401   0.43356031
3556.00   24.24337578   0.43404657
3558.00   24.07938004   0.43228838
3560.00   24.22704887   0.43241459
3562.00   24.38274574   0.43012038
3564.00   24.61682129   0.42926806
3566.00   24.61323357   0.42907304
3568.00   24.72723961   0.42748904
3570.00   24.63943291   0.42654356
3572.00   24.91102028   0.42660275
3574.00   25.20402336   0.42546239
3576.00   24.71732330   0.42068747
3578.00   24.92345238   0.41872156
3580.00   24.14937592   0.41226569
3582.00   23.99257851   0.40671268
3584.00   23.65476608   0.40318063
3586.00   23.52795982   0.39870214
3588.00   23.88958740   0.39921412
3590.00   22.96484947   0.39357695
3592.00   23.01206207   0.39165044
3594.00   22.73508263   0.38788003
3596.00   22.32343483   0.38234210
3598.00   22.18103027   0.37946895
3600.00   22.57041359   0.38148868
3602.00   22.28294182   0.37648997
3604.00   22.88926315   0.37972555
3606.00   22.04662323   0.37168530
3608.00   22.96606636   0.37653214
3610.00   23.37231445   0.37762296
3612.00   23.48904610   0.38957915
3614.00   23.92279625   0.38787046
3616.00   24.67723656   0.38445151
3618.00   25.14057732   0.38405567
3620.00   25.35854530   0.38311392
3622.00   26.44906616   0.38772118
3624.00   25.87195206   0.38275018
3626.00   26.07796288   0.38486627
3628.00   26.90383148   0.38918012
3630.00   27.70769501   0.39300242
3632.00   28.45002937   0.39508620
3634.00   28.44080162   0.39285842
3636.00   29.16529083   0.39600205
3638.00   29.93798637   0.39875799
3640.00   29.61697769   0.39654073
3642.00   30.73269653   0.40129215
3644.00   30.16678047   0.39685684
3646.00   31.15461922   0.40081751
3648.00   31.12731934   0.40677175
3650.00   30.40848160   0.40654415
3652.00   31.50667763   0.40430638
3654.00   30.43060303   0.39566234
3656.00   29.95389557   0.38915354
3658.00   29.98946571   0.38171339
3660.00   28.90895081   0.37689704
3662.00   29.56717110   0.38201854
3664.00   28.97186470   0.37517059
3666.00   27.35894203   0.36089313
3668.00   27.13406372   0.35744622
3670.00   27.16130257   0.35577404
3672.00   26.45628738   0.35138083
3674.00   24.59871101   0.33837017
3676.00   24.52365875   0.33614078
3678.00   23.44628525   0.32791129
3680.00   22.51682472   0.32034355
3682.00   22.65783119   0.31949818
3684.00   21.55297661   0.31300327
3686.00   21.30925560   0.30906376
3688.00   20.86968422   0.30563092
3690.00   20.53245354   0.30326298
3692.00   18.90026474   0.29177636
3694.00   19.43923950   0.29269856
3696.00   19.48133659   0.29236805
3698.00   18.91419029   0.28830579
3700.00   19.11565590   0.28758541
3702.00   18.13031769   0.28058681
3704.00   18.75899315   0.28468192
3706.00   17.83572578   0.27813229
3708.00   18.14890862   0.27860862
3710.00   17.44641113   0.27271637
3712.00   17.99036598   0.27513054
3714.00   17.33127022   0.26992568
3716.00   17.02467346   0.26795226
3718.00   17.32199669   0.26812896
3720.00   17.52219963   0.26718467
3722.00   17.27375984   0.26374543
3724.00   16.99575615   0.26189017
3726.00   16.87376404   0.26189604
3728.00   17.48048401   0.26415133
3730.00   16.99153519   0.26078874
3732.00   17.19378853   0.26048389
3734.00   17.18118858   0.25916949
3736.00   16.19131279   0.25272140
3738.00   16.78691292   0.25614348
3740.00   16.84393692   0.25671151
3742.00   16.64042473   0.25609162
3744.00   16.52861404   0.25281897
3746.00   16.15581703   0.24715953
3748.00   16.27006531   0.24805278
3750.00   16.33664513   0.24739458
3752.00   15.72963715   0.24233411
3754.00   16.09097481   0.24519166
3756.00   15.97119236   0.24375677
3758.00   14.80840397   0.23467107
3760.00   15.16225052   0.23649590
3762.00   15.06844044   0.23461655
3764.00   14.82196617   0.23210509
3766.00   15.08631611   0.23356020
3768.00   15.03903866   0.23310196
3770.00   14.94677639   0.23249622
3772.00   14.58697796   0.22950247
3774.00   14.09336662   0.22701770
3776.00   14.35077667   0.22662714
3778.00   14.73902702   0.22877896
3780.00   14.01346684   0.22363810
3782.00   14.11744213   0.22334835
3784.00   13.80527687   0.22069079
3786.00   14.20638180   0.22183833
3788.00   13.97433758   0.22053190
3790.00   14.20405674   0.22173192
3792.00   13.55822849   0.21866699
3794.00   14.06763172   0.22049089
3796.00   13.51337147   0.21536984
3798.00   14.25532532   0.22005047
3800.00   14.16155624   0.21817701
3802.00   14.30354309   0.21906677
3804.00   14.53533363   0.21890874
3806.00   14.38685417   0.21810262
3808.00   14.78106117   0.21900311
3810.00   15.28157616   0.22169620
3812.00   15.61494446   0.22189920
3814.00   15.28207970   0.22098652
3816.00   15.72307587   0.22294180
3818.00   15.40742397   0.22172131
3820.00   16.02635574   0.22394122
3822.00   16.60418320   0.22707143
3824.00   16.95973396   0.22877686
3826.00   17.29430771   0.22978806
3828.00   17.65360832   0.23182790
3830.00   18.38891411   0.23542279
3832.00   18.61219215   0.23562114
3834.00   19.07788658   0.23677553
3836.00   18.82892418   0.23603433
3838.00   19.13215828   0.23687465
3840.00   19.86372757   0.23901959
3842.00   20.26529694   0.24153632
3844.00   20.63184738   0.24202827
3846.00   21.68232346   0.24705739
3848.00   21.47158432   0.24493320
3850.00   22.38873100   0.24957666
3852.00   22.54817390   0.25012606
3854.00   22.68356133   0.24982610
3856.00   23.79408264   0.25474417
3858.00   24.81958580   0.25941330
3860.00   24.85248756   0.26013640
3862.00   25.35725784   0.26214740
3864.00   25.77109146   0.26363447
3866.00   27.01460648   0.26880568
3868.00   26.94095612   0.26820958
3870.00   28.03124428   0.27251318
3872.00   28.60936356   0.27401805
3874.00   29.64571953   0.27928135
3876.00   30.23090935   0.28042477
3878.00   30.56995583   0.28087789
3880.00   31.06402779   0.28330013
3882.00   31.73214531   0.28590092
3884.00   32.75469589   0.28861231
3886.00   33.05088425   0.28996050
3888.00   32.84607697   0.28874499
3890.00   33.77424622   0.29178593
3892.00   33.51921463   0.29113662
3894.00   34.87134933   0.29594240
3896.00   35.38791275   0.29691571
3898.00   35.98156357   0.29858842
3900.00   36.74147034   0.30116275
3902.00   36.46142578   0.29986867
3904.00   37.23467636   0.30242971
3906.00   37.32711029   0.30385849
3908.00   37.18754959   0.30374387
3910.00   37.49529648   0.30475870
3912.00   38.40938950   0.30660644
3914.00   38.55113602   0.30625904
3916.00   38.41231918   0.30318731
3918.00   38.82247543   0.30358940
3920.00   39.15900803   0.30364403
3922.00   39.18327713   0.30293456
3924.00   39.43612671   0.30315256
3926.00   39.00594711   0.30189452
3928.00   39.32508850   0.30215037
3930.00   38.47323990   0.29824671
3932.00   36.72550583   0.29203731
3934.00   36.92744446   0.29211831
3936.00   38.71327972   0.29758644
3938.00   38.38988876   0.29562306
3940.00   38.70552826   0.29760107
3942.00   38.43522263   0.29659572
3944.00   37.73890305   0.29298899
3946.00   36.83040237   0.28915498
3948.00   37.38683701   0.28986216
3950.00   36.78221512   0.28672737
3952.00   35.91731262   0.28321791
3954.00   35.94218445   0.28288269
3956.00   35.34562302   0.28034848
3958.00   35.16662216   0.28001958
3960.00   34.32760620   0.27744991
3962.00   34.00568771   0.27559814
3964.00   33.27232361   0.27165812
3966.00   33.29647446   0.27097967
3968.00   31.49015617   0.26385292
3970.00   32.42561340   0.26642570
3972.00   31.96953583   0.26539662
3974.00   31.46369743   0.26239258
3976.00   30.89233589   0.25922292
3978.00   30.52131844   0.25757298
3980.00   29.81160355   0.25366810
3982.00   29.71310234   0.25249904
3984.00   29.31443024   0.24950443
3986.00   29.26808167   0.24900596
3988.00   29.05290222   0.24813627
3990.00   29.07141113   0.24804701
3992.00   28.97253990   0.24742399
3994.00   28.96572495   0.24801262
3996.00   29.01040077   0.24832387
3998.00   28.80953979   0.24714239
4000.00   28.56511879   0.24478395
4002.00   28.29680443   0.24393034
4004.00   28.05840302   0.24244252
4006.00   28.26772499   0.24303448
4008.00   28.69814873   0.24419138
4010.00   28.70861053   0.24389736
4012.00   28.97224998   0.24419327
4014.00   29.39151382   0.24545278
4016.00   29.61609840   0.24582171
4018.00   30.06666565   0.24865367
4020.00   29.88826180   0.24915342
4022.00   30.17564774   0.25023723
4024.00   30.53330994   0.25046632
4026.00   30.70763397   0.24931926
4028.00   31.81908989   0.25205615
4030.00   31.79025078   0.25150546
4032.00   32.16921234   0.25278983
4034.00   32.46467972   0.25274161
4036.00   32.70602036   0.25280702
4038.00   32.91748428   0.25342065
4040.00   33.19613647   0.25446388
4042.00   33.16157913   0.25487560
4044.00   33.38012314   0.26385182
4046.00   33.33219147   0.27012134
4048.00   34.01784515   0.26662338
4050.00   33.86995697   0.25721896
4052.00   34.23402405   0.25605923
4054.00   34.06634903   0.25461471
4056.00   34.66374588   0.25583607
4058.00   35.04574203   0.25604862
4060.00   35.23631668   0.25644058
4062.00   36.08261490   0.25837716
4064.00   35.77587509   0.25756353
4066.00   36.23416138   0.25802222
4068.00   36.70592499   0.25940502
4070.00   36.97479248   0.26012447
4072.00   36.88866806   0.25907734
4074.00   36.81002808   0.25909832
4076.00   37.12936020   0.26056647
4078.00   36.80696106   0.25996432
4080.00   36.93951797   0.25931409
4082.00   37.36286545   0.25957638
4084.00   37.26823044   0.25832748
4086.00   37.32332611   0.25820881
4088.00   37.64725876   0.25845122
4090.00   37.58498383   0.25738525
4092.00   37.64283371   0.25686482
4094.00   37.43989182   0.25616309
4096.00   38.05374146   0.25722674
4098.00   38.28598785   0.25797012
4100.00   38.64980316   0.25852883
4102.00   38.34349823   0.25692248
4104.00   38.36202240   0.25722808
4106.00   37.89716339   0.25538883
4108.00   38.65680313   0.25745964
4110.00   39.02706909   0.25774577
4112.00   38.80404282   0.25649348
4114.00   38.81599045   0.25569737
4116.00   38.49526978   0.25401276
4118.00   38.82044220   0.25384179
4120.00   38.84730530   0.25355396
4122.00   38.60338593   0.25278804
4124.00   38.87158966   0.25337380
4126.00   39.25637436   0.25418049
4128.00   39.44337845   0.25400349
4130.00   39.02007675   0.25264758
4132.00   38.81172562   0.25194240
4134.00   38.72435379   0.25105515
4136.00   39.14492035   0.25105062
4138.00   38.72996521   0.24997689
4140.00   38.64936447   0.24922770
4142.00   37.76729965   0.24573135
4144.00   38.34180069   0.24613509
4146.00   37.90122223   0.24467088
4148.00   37.40447998   0.24307956
4150.00   37.47591782   0.24228604
4152.00   37.38882446   0.24255963
4154.00   37.26092148   0.24153829
4156.00   36.87331009   0.23933619
4158.00   36.76817322   0.23858500
4160.00   36.43006897   0.23684804
4162.00   36.16355133   0.23654763
4164.00   35.96086884   0.23627880
4166.00   36.18258667   0.23641527
4168.00   36.36737442   0.23567162
4170.00   36.60679245   0.23534419
4172.00   36.12105179   0.23381543
4174.00   36.18381119   0.23359582
4176.00   35.60867310   0.23183826
4178.00   36.00989914   0.23272456
4180.00   36.25087357   0.23329353
4182.00   36.46589661   0.23305018
4184.00   36.27280807   0.23182678
4186.00   36.76777649   0.23320514
4188.00   37.05136490   0.23374602
4190.00   37.19580078   0.23343232
4192.00   36.91327286   0.23231891
4194.00   37.09739304   0.23257342
4196.00   36.95580292   0.23158792
4198.00   37.11677170   0.23151042
4200.00   36.76875687   0.23026757
4202.00   36.98958969   0.23176855
4204.00   36.13674164   0.22790758
4206.00   36.00963211   0.22742875
4208.00   35.81407166   0.22669055
4210.00   35.19633102   0.22457099
4212.00   34.42653275   0.22168869
4214.00   34.39412308   0.22151005
4216.00   34.21131897   0.22051252
4218.00   33.40842819   0.21796796
4220.00   33.37776947   0.21748926
4222.00   32.68753433   0.21481526
4224.00   32.72861099   0.21451168
4226.00   32.37880707   0.21323520
4228.00   32.02394867   0.21234053
4230.00   31.90802002   0.21072835
4232.00   31.49529076   0.21677479
4234.00   31.44724274   0.21261396
4236.00   31.17028999   0.20892182
4238.00   30.98375130   0.20778574
4240.00   30.54866409   0.20592293
4242.00   30.41245842   0.20447214
4244.00   30.43218613   0.20552558
4246.00   29.69229698   0.20382395
4248.00   29.51576996   0.20279117
4250.00   29.20216179   0.20059106
4252.00   29.18988800   0.19945233
4254.00   29.33696365   0.19999711
4256.00   28.74187660   0.19821520
4258.00   28.27693748   0.19630368
4260.00   28.19685555   0.19550571
4262.00   28.13317680   0.19522302
4264.00   27.64023209   0.19372477
4266.00   26.87565231   0.19041415
4268.00   26.41310883   0.18876120
4270.00   25.86784172   0.18643270
4272.00   25.38170815   0.18460084
4274.00   25.01017570   0.18354186
4276.00   24.55591583   0.18181925
4278.00   23.84177780   0.17938076
4280.00   23.42709541   0.17785026
4282.00   24.11395645   0.17993523
4284.00   23.44347572   0.17751066
4286.00   22.85939980   0.17506966
4288.00   22.99419212   0.17497827
4290.00   22.80607224   0.17396984
4292.00   22.58581161   0.17349464
4294.00   22.42581558   0.17272581
4296.00   22.40225220   0.17236798
4298.00   21.82804871   0.17028722
4300.00   21.71624374   0.16960701
4302.00   21.72471619   0.16982651
4304.00   21.77583885   0.16963805
4306.00   21.39492607   0.16841345
4308.00   21.22651291   0.16728704
4310.00   21.30694580   0.16804586
4312.00   20.94686508   0.16740705
4314.00   21.01548195   0.16808191
4316.00   21.01629448   0.16714031
4318.00   20.69890785   0.16595013
4320.00   20.96507072   0.16617604
4322.00   20.63643646   0.16480364
4324.00   20.82146645   0.16502178
4326.00   20.81821060   0.16501951
4328.00   20.81215858   0.16441734
4330.00   20.88736725   0.16448346
4332.00   21.02368546   0.16529478
4334.00   20.87018204   0.16570438
4336.00   21.08443069   0.16617666
4338.00   21.55006599   0.16770059
4340.00   21.29127693   0.16687147
4342.00   21.49608040   0.16705146
4344.00   21.17718887   0.16616862
4346.00   21.13625526   0.16654703
4348.00   21.26892090   0.16723695
4350.00   20.86038589   0.16535854
4352.00   20.93359375   0.16487783
4354.00   20.82517242   0.16792065
4356.00   20.04199028   0.18081920
4358.00   20.06592178   0.18907365
4360.00   20.86794472   0.18202649
4362.00   20.46187210   0.16884132
4364.00   20.52934837   0.16424617
4366.00   20.22743607   0.16226563
4368.00   20.40771103   0.16254102
4370.00   20.71112633   0.16319275
4372.00   20.16180420   0.16123812
4374.00   20.17893791   0.16161022
4376.00   20.36457634   0.16188549
4378.00   20.56503487   0.16171320
4380.00   20.63902855   0.16180484
4382.00   20.51916885   0.16104972
4384.00   20.64957619   0.16101196
4386.00   20.88232040   0.16167156
4388.00   21.12290573   0.16235183
4390.00   21.47205734   0.16342279
4392.00   21.77224350   0.16426864
4394.00   21.64874268   0.16347438
4396.00   21.91326332   0.16413835
4398.00   22.22764587   0.16548167
4400.00   22.37515831   0.16602999
4402.00   22.00769043   0.16461061
4404.00   22.64250946   0.16605498
4406.00   22.67550468   0.16610971
4408.00   22.89707184   0.16674845
4410.00   22.88208008   0.16698729
4412.00   22.98348618   0.16717684
4414.00   23.36739731   0.16868000
4416.00   23.23553848   0.16832329
4418.00   23.32918739   0.16819583
4420.00   22.97106552   0.16691262
4422.00   23.84315109   0.16903220
4424.00   23.81323814   0.16896518
4426.00   23.75458145   0.16864581
4428.00   23.96631241   0.16936517
4430.00   23.94562149   0.16950624
4432.00   23.99350929   0.16973005
4434.00   24.08138466   0.16958813
4436.00   24.12326241   0.16952200
4438.00   24.16778755   0.17004965
4440.00   24.07567024   0.16988946
4442.00   24.14875412   0.16975939
4444.00   24.26241493   0.16993056
4446.00   24.19429398   0.16968314
4448.00   23.74836159   0.16818735
4450.00   24.28818703   0.16969635
4452.00   24.20791245   0.16946669
4454.00   24.23913765   0.16938703
4456.00   24.39660072   0.17009439
4458.00   24.42849541   0.16997311
4460.00   24.98126793   0.17130995
4462.00   25.05895996   0.17162003
4464.00   24.87371826   0.17117935
4466.00   25.46999168   0.17278582
4468.00   25.44501114   0.17270352
4470.00   25.76079750   0.17352894
4472.00   26.43783760   0.17513403
4474.00   26.99678993   0.17659363
4476.00   27.37129974   0.17756024
4478.00   27.23568916   0.17748758
4480.00   28.11285591   0.17965096
4482.00   27.99860573   0.17929928
4484.00   28.55987549   0.18092082
4486.00   29.00217247   0.18220510
4488.00   29.11793327   0.18262535
4490.00   29.51340294   0.18376382
4492.00   30.07404709   0.18531221
4494.00   30.04138756   0.18562360
4496.00   30.23181534   0.18616737
4498.00   31.11910057   0.18773948
4500.00   31.33894539   0.18855886
4502.00   31.10924339   0.18805531
4504.00   31.75688362   0.18935342
4506.00   32.17456436   0.19053371
4508.00   32.38370514   0.19103459
4510.00   32.46334457   0.19076942
4512.00   32.65644073   0.19123018
4514.00   32.73235321   0.19122088
4516.00   32.55698776   0.19078097
4518.00   32.79457092   0.19138314
4520.00   32.91240692   0.19184980
4522.00   33.09728241   0.19209254
4524.00   33.00596237   0.19161877
4526.00   33.16408920   0.19232698
4528.00   32.85716629   0.19146220
4530.00   32.96322632   0.19122030
4532.00   33.08834457   0.19148394
4534.00   33.15362930   0.19157270
4536.00   33.03015518   0.19105132
4538.00   33.38764572   0.19210219
4540.00   33.57182693   0.19233392
4542.00   33.07780075   0.19107173
4544.00   33.19393158   0.19123387
4546.00   33.25963974   0.19091210
4548.00   33.44267654   0.19077505
4550.00   33.23046112   0.19012769
4552.00   33.48014450   0.19104113
4554.00   33.32088089   0.19058481
4556.00   32.98438263   0.19002758
4558.00   32.56434631   0.18899173
4560.00   32.51435089   0.18838318
4562.00   32.83685684   0.18848732
4564.00   32.60472107   0.18806072
4566.00   31.94514465   0.18654226
4568.00   31.87364578   0.18651175
4570.00   31.83180428   0.18600108
4572.00   31.89024925   0.18595321
4574.00   32.03009415   0.18637124
