# File created by shivutils (I.Shivvers)
# wl(A)   flm    er(optional)
3422.00   7.21865463   0.23353340
3424.00   7.09896994   0.23561159
3426.00   7.51169300   0.23989812
3428.00   7.60616493   0.24421613
3430.00   7.76026773   0.24629530
3432.00   7.66083336   0.24708131
3434.00   7.31667519   0.24367368
3436.00   7.57559443   0.24845238
3438.00   7.78096151   0.25128058
3440.00   7.94669056   0.25276509
3442.00   7.59352827   0.24924253
3444.00   7.95812178   0.25788492
3446.00   7.69330931   0.25391185
3448.00   7.46404696   0.25134557
3450.00   7.59099388   0.25396836
3452.00   7.81295109   0.25724053
3454.00   7.78417587   0.25890028
3456.00   7.12150478   0.25101125
3458.00   7.85323000   0.25991073
3460.00   7.85022640   0.26096022
3462.00   7.92892075   0.26154718
3464.00   7.66982985   0.25908566
3466.00   7.28552914   0.25537524
3468.00   7.81083107   0.26186782
3470.00   7.97872543   0.26910508
3472.00   8.02564526   0.26531196
3474.00   8.61169052   0.26922852
3476.00   8.17101669   0.26404652
3478.00   7.71221590   0.26315910
3480.00   8.10216808   0.26830524
3482.00   8.37942600   0.27363759
3484.00   8.34861565   0.27216735
3486.00   8.81419086   0.27500007
3488.00   8.77176476   0.27206913
3490.00   9.13388729   0.27764550
3492.00   8.56437778   0.27239749
3494.00   8.89798450   0.27378088
3496.00   9.01962090   0.27396980
3498.00   9.00593281   0.27286765
3500.00   8.85378742   0.27280036
3502.00   8.61694431   0.26854086
3504.00   9.09568596   0.27171031
3506.00   8.59257984   0.26589784
3508.00   9.22374344   0.27153698
3510.00   8.17990494   0.26340315
3512.00   8.46404839   0.26301083
3514.00   8.50464153   0.26019332
3516.00   8.21038532   0.25821474
3518.00   8.52004147   0.25977758
3520.00   8.03381348   0.25549954
3522.00   8.31873703   0.25911698
3524.00   8.12354279   0.25443789
3526.00   8.55576897   0.25665903
3528.00   8.78223610   0.25971711
3530.00   8.57308865   0.25592151
3532.00   8.57450771   0.25337440
3534.00   8.73127747   0.25484806
3536.00   8.80774498   0.25587040
3538.00   8.85922623   0.25649583
3540.00   8.30713272   0.24923322
3542.00   8.39658737   0.25150093
3544.00   8.19716358   0.25031063
3546.00   8.03624821   0.24573326
3548.00   8.47095776   0.24691287
3550.00   8.65496159   0.24996716
3552.00   7.75000620   0.23968652
3554.00   8.21526146   0.24512401
3556.00   7.86334944   0.23932388
3558.00   8.46926689   0.24533559
3560.00   8.46353817   0.24350327
3562.00   8.20804977   0.23733747
3564.00   8.56798840   0.23838276
3566.00   7.88085556   0.23276518
3568.00   7.35578442   0.22398406
3570.00   7.98680592   0.22977690
3572.00   8.14038849   0.23020937
3574.00   7.76431227   0.22535157
3576.00   8.06954861   0.22650215
3578.00   7.22525930   0.21810535
3580.00   7.60361004   0.22025721
3582.00   6.90696621   0.20862763
3584.00   6.97122335   0.20745093
3586.00   6.86394787   0.20572056
3588.00   6.70595598   0.20485756
3590.00   7.05316305   0.20772974
3592.00   6.82461691   0.20443268
3594.00   6.56407213   0.20051925
3596.00   6.62039518   0.19916157
3598.00   6.15803671   0.19290750
3600.00   6.11717129   0.18899243
3602.00   5.73440838   0.18502760
3604.00   5.83503914   0.18461330
3606.00   5.67073774   0.18404399
3608.00   5.90133667   0.18646981
3610.00   5.45942450   0.17924120
3612.00   5.21724129   0.17754933
3614.00   5.35262299   0.17776325
3616.00   5.37506390   0.17719071
3618.00   5.72130537   0.17954385
3620.00   5.27187967   0.17294855
3622.00   5.06825542   0.17015162
3624.00   4.83338976   0.16477703
3626.00   4.55637217   0.15983558
3628.00   4.69612312   0.16294712
3630.00   4.61007214   0.16162094
3632.00   4.34959412   0.15841256
3634.00   3.94791460   0.15211296
3636.00   4.29713106   0.15503854
3638.00   4.17909956   0.15357645
3640.00   4.07853937   0.15266767
3642.00   4.00053406   0.15063417
3644.00   3.78832269   0.14798398
3646.00   4.36764622   0.15394002
3648.00   3.93681717   0.15811038
3650.00   4.07628298   0.16109754
3652.00   3.81974411   0.15426560
3654.00   3.71547055   0.14837067
3656.00   3.36247611   0.14082873
3658.00   3.21628428   0.13485453
3660.00   3.23490024   0.13511285
3662.00   3.13458157   0.13765492
3664.00   3.31687617   0.13590130
3666.00   3.25588441   0.13134548
3668.00   3.25370717   0.13006277
3670.00   3.42205334   0.13248122
3672.00   3.09986448   0.12848373
3674.00   3.07921338   0.12623864
3676.00   3.15517259   0.12708247
3678.00   3.19385219   0.12581994
3680.00   2.94023919   0.12385288
3682.00   2.98889828   0.12169332
3684.00   3.08305740   0.12396680
3686.00   3.08499384   0.12399577
3688.00   3.37010288   0.12623882
3690.00   2.98912406   0.12253544
3692.00   3.37604761   0.12499955
3694.00   3.27538538   0.12467971
3696.00   3.29587793   0.12337852
3698.00   3.26941919   0.12366940
3700.00   3.48116255   0.12483779
3702.00   3.18910766   0.12164422
3704.00   3.27477717   0.12251859
3706.00   3.08181453   0.12012086
3708.00   3.05674195   0.11908955
3710.00   3.23213100   0.12081818
3712.00   3.47789121   0.12293451
3714.00   3.42193890   0.12292971
3716.00   3.41794753   0.12065773
3718.00   3.39870691   0.11968766
3720.00   3.62654996   0.12105104
3722.00   3.67433476   0.12161381
3724.00   3.83001637   0.12336822
3726.00   3.57588005   0.12115022
3728.00   3.80662513   0.12339778
3730.00   3.95464325   0.12368681
3732.00   4.10842323   0.12647326
3734.00   4.06884432   0.12557720
3736.00   4.05263424   0.12527955
3738.00   4.34191608   0.12841359
3740.00   4.35513353   0.12993379
3742.00   4.33260632   0.12916784
3744.00   4.50467396   0.12998590
3746.00   4.14284277   0.12503055
3748.00   4.45284128   0.12633553
3750.00   4.65123034   0.12884387
3752.00   4.62052917   0.12669130
3754.00   4.68352842   0.12742776
3756.00   4.78802538   0.12843452
3758.00   5.03857946   0.13050087
3760.00   5.07772017   0.13115808
3762.00   5.18712282   0.13205282
3764.00   5.41749001   0.13364822
3766.00   5.25269842   0.13207678
3768.00   5.30913687   0.13226143
3770.00   5.61902714   0.13576165
3772.00   5.77578592   0.13681132
3774.00   5.91587448   0.13741529
3776.00   6.00472736   0.13762753
3778.00   6.08867741   0.13901669
3780.00   6.22992277   0.13908982
3782.00   6.45612669   0.14016964
3784.00   6.47908783   0.14057004
3786.00   6.17790031   0.13863136
3788.00   6.58405876   0.14174725
3790.00   6.80573368   0.14445594
3792.00   6.85600090   0.14426678
3794.00   6.91290665   0.14489548
3796.00   7.02188683   0.14472559
3798.00   7.22874975   0.14580961
3800.00   7.63826799   0.14822499
3802.00   7.52570963   0.14885257
3804.00   7.82294464   0.15009494
3806.00   8.27844143   0.15255401
3808.00   8.20390701   0.15129124
3810.00   8.22025394   0.15154712
3812.00   8.46067142   0.15255204
3814.00   8.79218388   0.15443037
3816.00   8.61061859   0.15355247
3818.00   8.97457600   0.15636216
3820.00   9.18730354   0.15765725
3822.00   9.38671398   0.15877323
3824.00   9.56984901   0.15911435
3826.00   9.47734451   0.15794548
3828.00   9.89593983   0.16130313
3830.00   9.69114494   0.15920240
3832.00   9.95148277   0.16049980
3834.00   10.16279697   0.16098472
3836.00   10.35998821   0.16208377
3838.00   10.59057426   0.16315171
3840.00   10.86135387   0.16359031
3842.00   11.12797165   0.16546927
3844.00   10.92595577   0.16356963
3846.00   11.29134846   0.16512570
3848.00   11.56976414   0.16644776
3850.00   11.69873047   0.16728938
3852.00   11.58377266   0.16635567
3854.00   11.99842453   0.16886842
3856.00   11.88827705   0.16804262
3858.00   12.18606853   0.16937596
3860.00   12.48039055   0.17045078
3862.00   12.80275440   0.17228304
3864.00   12.42419624   0.16981366
3866.00   12.53433418   0.16996180
3868.00   12.51618004   0.16948494
3870.00   12.51874924   0.16866882
3872.00   12.78606987   0.17056429
3874.00   12.78039551   0.16952431
3876.00   12.35184574   0.16767971
3878.00   12.75653934   0.16903472
3880.00   12.26800060   0.16635233
3882.00   12.57661247   0.16734336
3884.00   12.44670296   0.16660228
3886.00   12.47123909   0.16587245
3888.00   12.41324329   0.16558246
3890.00   12.40251732   0.16534002
3892.00   12.97032738   0.16762958
3894.00   12.25667477   0.16400814
3896.00   12.61997986   0.16598004
3898.00   12.71794510   0.16589633
3900.00   13.00392818   0.16751093
3902.00   12.99493122   0.16700543
3904.00   12.77127266   0.16599205
3906.00   13.07510281   0.16868764
3908.00   13.17714596   0.16875139
3910.00   13.10839272   0.16797195
3912.00   12.91924095   0.16717364
3914.00   13.37897778   0.16886641
3916.00   13.30706024   0.16723925
3918.00   13.01012039   0.16551897
3920.00   12.85552406   0.16448759
3922.00   12.55309772   0.16212995
3924.00   12.75614262   0.16279438
3926.00   12.45911598   0.16030768
3928.00   12.02988148   0.15859455
3930.00   11.65072250   0.15610799
3932.00   11.17905521   0.15362120
3934.00   11.21673393   0.15338251
3936.00   11.86081505   0.15608966
3938.00   11.52944374   0.15407728
3940.00   11.42803955   0.15276799
3942.00   11.70692730   0.15459062
3944.00   11.46670055   0.15224603
3946.00   11.22964191   0.15032887
3948.00   10.95892143   0.14797975
3950.00   11.26882267   0.14918949
3952.00   11.10817623   0.14789046
3954.00   11.03210640   0.14751579
3956.00   11.07532692   0.14706838
3958.00   11.19830513   0.14771560
3960.00   10.89824772   0.14721495
3962.00   11.15434265   0.14804578
3964.00   11.22277355   0.14799304
3966.00   10.44887829   0.14334811
3968.00   10.35418129   0.14252041
3970.00   10.72489643   0.14442348
3972.00   10.93333244   0.14608245
3974.00   10.64673901   0.14368266
3976.00   10.76895809   0.14388877
3978.00   10.77693081   0.14353547
3980.00   10.67554283   0.14200711
3982.00   10.96245956   0.14317730
3984.00   10.83396435   0.14135551
3986.00   10.62499523   0.14000291
3988.00   10.29974174   0.13844119
3990.00   10.74458408   0.14134581
3992.00   10.98740959   0.14305098
3994.00   10.95068264   0.14248213
3996.00   10.92153263   0.14243135
3998.00   10.98693562   0.14283547
4000.00   11.13040733   0.14294095
4002.00   11.30320454   0.14326945
4004.00   11.20889091   0.14316685
4006.00   11.42322159   0.14441735
4008.00   11.30206203   0.14360720
4010.00   11.40176487   0.14430985
4012.00   11.57075500   0.14497693
4014.00   11.89203167   0.14587124
4016.00   12.00853348   0.14616175
4018.00   12.07383633   0.14706945
4020.00   12.35298634   0.14905150
4022.00   12.12917519   0.14887054
4024.00   12.26860142   0.14816257
4026.00   12.53043175   0.14852567
4028.00   12.82545948   0.14908320
4030.00   13.10138988   0.15054584
4032.00   12.96298504   0.14958933
4034.00   13.12006950   0.15007991
4036.00   13.43561935   0.15125982
4038.00   13.48422813   0.15075108
4040.00   13.00014877   0.14886950
4042.00   13.04453754   0.14969417
4044.00   13.00634480   0.15535896
4046.00   13.27387238   0.16073529
4048.00   13.40881348   0.15753271
4050.00   13.59184265   0.15147384
4052.00   13.31592178   0.14938729
4054.00   13.36866188   0.14969674
4056.00   13.52680588   0.14953588
4058.00   13.54721355   0.14886342
4060.00   13.83259678   0.14961097
4062.00   13.61722565   0.14879553
4064.00   13.66491127   0.14842206
4066.00   13.74354172   0.14845723
4068.00   14.00266266   0.14980064
4070.00   13.91560650   0.14870831
4072.00   13.90295696   0.14815353
4074.00   13.90144348   0.14858562
4076.00   13.76210499   0.14898562
4078.00   13.81746006   0.14926672
4080.00   13.79150200   0.14792360
4082.00   13.83850384   0.14725360
4084.00   13.86122894   0.14729144
4086.00   13.85878849   0.14681433
4088.00   13.55398655   0.14522766
4090.00   13.28627968   0.14342353
4092.00   13.42766380   0.14333329
4094.00   13.42881966   0.14282770
4096.00   13.06263924   0.14101030
4098.00   13.30922890   0.14189796
4100.00   13.08545017   0.14079361
4102.00   13.03637791   0.14022325
4104.00   13.31283951   0.14119385
4106.00   12.97018051   0.13947348
4108.00   12.97797966   0.13941638
4110.00   13.14698887   0.13939416
4112.00   12.99882317   0.13816643
4114.00   13.02615452   0.13818812
4116.00   13.12381554   0.13820112
4118.00   12.86692429   0.13910943
4120.00   12.85002899   0.13673784
4122.00   12.82447433   0.13600124
4124.00   12.75559044   0.13597566
4126.00   12.74378395   0.13569987
4128.00   12.92276001   0.13598096
4130.00   12.99396801   0.13651703
4132.00   13.10113144   0.13685882
4134.00   12.38657475   0.13396259
4136.00   12.94066143   0.13533092
4138.00   12.90877819   0.13487777
4140.00   12.55553818   0.13347308
4142.00   12.66240501   0.13326390
4144.00   12.62661552   0.13274099
4146.00   12.74512863   0.13290219
4148.00   12.65499115   0.13219185
4150.00   12.70518208   0.13215600
4152.00   12.50675964   0.13169724
4154.00   12.76539803   0.13251391
4156.00   12.41276264   0.13060957
4158.00   12.73374653   0.13172165
4160.00   12.64685345   0.13085890
4162.00   12.37255859   0.12987944
4164.00   12.32901669   0.12996478
4166.00   12.29678059   0.12921859
4168.00   12.17192078   0.12813814
4170.00   11.94742298   0.12685862
4172.00   11.89673805   0.12603036
4174.00   11.72672176   0.12533450
4176.00   11.73874760   0.12520431
4178.00   11.63225269   0.12476213
4180.00   11.54719353   0.12401923
4182.00   11.52467918   0.12390633
4184.00   11.47575569   0.12301478
4186.00   11.36507511   0.12229346
4188.00   11.45790863   0.12242284
4190.00   11.30079556   0.12152947
4192.00   11.10193157   0.12022739
4194.00   11.05646420   0.12022026
4196.00   11.18647957   0.12012576
4198.00   11.03349781   0.11934941
4200.00   10.62818718   0.11776815
4202.00   10.89075470   0.11847568
4204.00   10.69728279   0.11760705
4206.00   10.54840374   0.11631606
4208.00   10.45554733   0.11606421
4210.00   10.59761429   0.11667337
4212.00   10.27358246   0.11488295
4214.00   10.40330410   0.11517950
4216.00   9.94842911   0.11268034
4218.00   9.98628044   0.11253186
4220.00   9.99199295   0.11280815
4222.00   9.60350513   0.11053142
4224.00   9.78833866   0.11169565
4226.00   9.59263706   0.11050109
4228.00   9.31139660   0.10915788
4230.00   9.26378345   0.10790502
4232.00   9.21530819   0.10804018
4234.00   8.94160366   0.10661219
4236.00   8.74933910   0.10571560
4238.00   8.68279266   0.10521366
4240.00   8.50918198   0.10332309
4242.00   8.41663456   0.10253966
4244.00   8.44411850   0.10290840
4246.00   8.23454666   0.10263055
4248.00   8.22877979   0.10239445
4250.00   8.16841221   0.10090435
4252.00   7.98044157   0.09940482
4254.00   7.70670700   0.09805638
4256.00   7.84139061   0.09871877
4258.00   7.60670137   0.09776413
4260.00   7.71235895   0.09805942
4262.00   7.54437971   0.09735943
4264.00   7.40338469   0.09628836
4266.00   7.46436596   0.09592965
4268.00   7.29990005   0.09487419
4270.00   7.59509563   0.09621324
4272.00   7.31047678   0.09464616
4274.00   7.28663826   0.09450873
4276.00   7.27965689   0.09428856
4278.00   7.18462229   0.09415094
4280.00   7.36876202   0.09531039
4282.00   7.17291880   0.09413816
4284.00   7.27209473   0.09443936
4286.00   7.27161932   0.09385603
4288.00   7.37490034   0.09443603
4290.00   7.47227764   0.09465891
4292.00   7.47221136   0.09447690
4294.00   7.53513527   0.09510668
4296.00   7.86905146   0.09671193
4298.00   7.73238754   0.09619230
4300.00   7.91285753   0.09685726
4302.00   8.06150341   0.09777220
4304.00   8.04133797   0.09745780
4306.00   8.11585140   0.09779692
4308.00   8.10039139   0.09745567
4310.00   8.29532623   0.09829883
4312.00   8.26391411   0.09860934
4314.00   8.27185822   0.09879531
4316.00   8.31254578   0.09866582
4318.00   8.42775631   0.09862776
4320.00   8.69926643   0.10028363
4322.00   8.49484730   0.09864869
4324.00   8.62671185   0.09929696
4326.00   8.63852501   0.09941365
4328.00   8.79677105   0.09986039
4330.00   8.96071815   0.10074314
4332.00   8.65571213   0.09960265
4334.00   8.68771935   0.09984554
4336.00   8.97379303   0.10174524
4338.00   8.99693584   0.10197552
4340.00   8.91528511   0.10126875
4342.00   9.01039314   0.10129286
4344.00   8.88739586   0.10091496
4346.00   8.88090992   0.10132574
4348.00   8.95006752   0.10188809
4350.00   8.87272167   0.10112910
4352.00   8.83413506   0.10076140
4354.00   8.85810852   0.10307377
4356.00   8.90560722   0.11297060
4358.00   8.75212193   0.11771306
4360.00   8.54408264   0.11070567
4362.00   8.85141373   0.10384979
4364.00   8.84571934   0.10058875
4366.00   8.77166176   0.10008332
4368.00   8.65278530   0.09934761
4370.00   8.70958805   0.09903036
4372.00   8.51731777   0.09874325
4374.00   8.50433445   0.09879215
4376.00   8.53214836   0.09861609
4378.00   8.63291168   0.09855519
4380.00   8.58910084   0.09863434
4382.00   8.33557415   0.09727830
4384.00   8.51466751   0.09723354
4386.00   8.60397339   0.09752025
4388.00   8.72489071   0.09769167
4390.00   8.56984425   0.09730618
4392.00   8.60480690   0.09722422
4394.00   8.40294266   0.09614166
4396.00   8.67368507   0.09710128
4398.00   8.59251595   0.09698072
4400.00   8.60906887   0.09704824
4402.00   8.65286922   0.09698472
4404.00   8.67166138   0.09663843
4406.00   8.60720634   0.09643709
4408.00   8.71697426   0.09717219
4410.00   8.93488026   0.09789766
4412.00   8.86460876   0.09806158
4414.00   9.00192642   0.09871322
4416.00   9.05756187   0.09866365
4418.00   9.19420242   0.09917267
4420.00   9.25488949   0.09930266
4422.00   9.38310623   0.09966077
4424.00   9.52876663   0.10029653
4426.00   9.46088791   0.10010120
4428.00   9.65325069   0.10090423
4430.00   9.58034897   0.10071719
4432.00   9.72195148   0.10131608
4434.00   9.82059193   0.10153814
4436.00   9.90255356   0.10227732
4438.00   10.04296780   0.10275736
4440.00   9.97521877   0.10274415
4442.00   9.97742367   0.10239103
4444.00   10.42795658   0.10412523
4446.00   10.33826637   0.10393116
4448.00   10.32224274   0.10391828
4450.00   10.31486797   0.10391230
4452.00   10.47832680   0.10441652
4454.00   10.53988361   0.10470109
4456.00   10.34570026   0.10435903
4458.00   10.68296337   0.10526929
4460.00   10.50430393   0.10508326
4462.00   10.57468891   0.10500972
4464.00   10.53628159   0.10489909
4466.00   10.82216740   0.10583296
4468.00   10.92644501   0.10618544
4470.00   10.81748009   0.10543904
4472.00   10.96146870   0.10610957
4474.00   10.84211826   0.10579789
4476.00   10.95910645   0.10597186
4478.00   11.30294418   0.10710113
4480.00   10.99782753   0.10614069
4482.00   11.05537796   0.10641884
4484.00   11.19360924   0.10711673
4486.00   11.11010456   0.10646324
4488.00   11.45060444   0.10783353
4490.00   11.43490314   0.10800190
4492.00   11.30810642   0.10754438
4494.00   11.52482128   0.10801283
4496.00   11.44598961   0.10788793
4498.00   11.73204231   0.10914500
4500.00   11.74705982   0.10911355
4502.00   11.53719711   0.10795549
4504.00   11.47603130   0.10822917
4506.00   11.47894382   0.10772245
4508.00   11.68811131   0.10829978
4510.00   11.31481266   0.10684044
4512.00   11.12034035   0.10581298
4514.00   11.18699741   0.10571795
4516.00   11.02341747   0.10506448
4518.00   10.90135002   0.10518184
4520.00   11.01996326   0.10534873
4522.00   10.96075821   0.10514753
4524.00   10.78248024   0.10440125
4526.00   10.87231827   0.10467737
4528.00   10.70259571   0.10417050
4530.00   10.51758003   0.10390358
4532.00   10.79350376   0.10396028
4534.00   10.72845173   0.10394026
4536.00   10.62711143   0.10345113
4538.00   10.69197655   0.10392176
4540.00   10.71732712   0.10384306
4542.00   11.01842308   0.10476986
4544.00   10.80768871   0.10386156
4546.00   11.06091690   0.10438649
4548.00   10.78839684   0.10337655
4550.00   10.84355927   0.10330718
4552.00   10.64175510   0.10263359
4554.00   10.70073700   0.10300826
4556.00   10.77304363   0.10330795
4558.00   10.83670521   0.10341771
4560.00   10.86083126   0.10374714
4562.00   10.87869740   0.10360583
4564.00   10.78369236   0.10324337
4566.00   10.83313370   0.10340434
4568.00   10.86293983   0.10327177
4570.00   10.82801533   0.10299806
4572.00   11.04824162   0.10400486
4574.00   11.01449680   0.10397130
4576.00   10.78128338   0.10307197
