# File created by shivutils (I.Shivvers)
# wl(A)   flm    er(optional)
3614.00   1.52398133   0.05271053
3616.00   1.49076653   0.05157249
3618.00   1.45385790   0.05166414
3620.00   1.49052191   0.05071673
3622.00   1.47157550   0.05063450
3624.00   1.43063653   0.05074017
3626.00   1.40275621   0.04951479
3628.00   1.39350629   0.05053737
3630.00   1.33873463   0.04952522
3632.00   1.30942583   0.04937416
3634.00   1.43960416   0.05002145
3636.00   1.45106661   0.04989150
3638.00   1.43767250   0.04956068
3640.00   1.37403703   0.04896803
3642.00   1.41774142   0.04960740
3644.00   1.34975207   0.04872597
3646.00   1.40930951   0.05114587
3648.00   1.42455709   0.05549616
3650.00   1.35218263   0.05572599
3652.00   1.44586170   0.05385438
3654.00   1.39990520   0.05162316
3656.00   1.42100048   0.04943341
3658.00   1.41218519   0.04795093
3660.00   1.36235523   0.04953347
3662.00   1.37050056   0.04964102
3664.00   1.25983381   0.04769129
3666.00   1.41427970   0.04676596
3668.00   1.35750008   0.04553122
3670.00   1.47069645   0.04676030
3672.00   1.44264674   0.04595190
3674.00   1.39268053   0.04474979
3676.00   1.40899944   0.04502380
3678.00   1.42583060   0.04497284
3680.00   1.56557953   0.04622059
3682.00   1.47435760   0.04514226
3684.00   1.41838372   0.04459626
3686.00   1.38663781   0.04418078
3688.00   1.42431200   0.04480902
3690.00   1.42600822   0.04421222
3692.00   1.40715969   0.04380923
3694.00   1.47538447   0.04432643
3696.00   1.43488503   0.04410170
3698.00   1.42905712   0.04393587
3700.00   1.41729045   0.04351868
3702.00   1.36972845   0.04267290
3704.00   1.33858693   0.04276667
3706.00   1.37542510   0.04216666
3708.00   1.40278006   0.04218467
3710.00   1.23841000   0.04091562
3712.00   1.27276790   0.04111887
3714.00   1.16454434   0.03922798
3716.00   1.17472827   0.03916759
3718.00   1.06119168   0.03807824
3720.00   1.10760164   0.03820447
3722.00   1.08891439   0.03773063
3724.00   1.12240195   0.03763507
3726.00   1.02927673   0.03634971
3728.00   1.00958765   0.03627835
3730.00   1.00785279   0.03662352
3732.00   0.97735834   0.03615307
3734.00   0.91842270   0.03558842
3736.00   0.91581476   0.03533526
3738.00   0.93078673   0.03533752
3740.00   0.93339211   0.03561518
3742.00   0.88617402   0.03444263
3744.00   0.92583877   0.03431346
3746.00   0.83754927   0.03352035
3748.00   0.87819833   0.03393448
3750.00   0.92174745   0.03406711
3752.00   0.86346745   0.03364513
3754.00   0.88060576   0.03326167
3756.00   0.92017955   0.03387328
3758.00   1.00787473   0.03502716
3760.00   0.98093837   0.03481781
3762.00   1.01323283   0.03507749
3764.00   0.93259078   0.03363912
3766.00   1.00545835   0.03367068
3768.00   1.01905906   0.03411937
3770.00   1.05803907   0.03443350
3772.00   1.10966921   0.03507973
3774.00   1.06619978   0.03451193
3776.00   1.11856902   0.03506652
3778.00   1.16191828   0.03487061
3780.00   1.13749695   0.03473690
3782.00   1.15214169   0.03468084
3784.00   1.01242602   0.03323846
3786.00   1.04443824   0.03353836
3788.00   0.97546607   0.03282260
3790.00   1.00215340   0.03281031
3792.00   0.91797960   0.03203182
3794.00   0.92868227   0.03179618
3796.00   0.90337521   0.03106952
3798.00   0.81934977   0.03063674
3800.00   0.84842545   0.03067494
3802.00   0.88839400   0.03080373
3804.00   0.85208881   0.03029594
3806.00   0.83389169   0.02995483
3808.00   0.88131189   0.03029061
3810.00   0.82937795   0.02986976
3812.00   0.80655867   0.02998772
3814.00   0.84268707   0.02990137
3816.00   0.85548437   0.03012994
3818.00   0.84692109   0.02986829
3820.00   0.84729034   0.02965465
3822.00   0.79130739   0.02891152
3824.00   0.77666944   0.02880048
3826.00   0.80152178   0.02934519
3828.00   0.74515527   0.02922190
3830.00   0.81922448   0.02935050
3832.00   0.79397678   0.02879909
3834.00   0.84153682   0.02934065
3836.00   0.80589908   0.02901091
3838.00   0.81574422   0.02892351
3840.00   0.88934588   0.02935937
3842.00   0.85998160   0.02911335
3844.00   0.81020659   0.02876395
3846.00   0.87814116   0.02908078
3848.00   0.87586248   0.02867794
3850.00   0.89535344   0.02919283
3852.00   0.90060872   0.02899821
3854.00   0.90270513   0.02889433
3856.00   0.93196267   0.02942767
3858.00   0.98698699   0.02927289
3860.00   1.02435029   0.02987828
3862.00   1.00744319   0.02983326
3864.00   1.13938117   0.03092697
3866.00   1.09856975   0.03028207
3868.00   1.13385332   0.03063105
3870.00   1.16688216   0.03082485
3872.00   1.23813903   0.03174600
3874.00   1.22496819   0.03150165
3876.00   1.24468493   0.03200108
3878.00   1.24505186   0.03150544
3880.00   1.26376331   0.03180019
3882.00   1.29619622   0.03157774
3884.00   1.33652163   0.03199645
3886.00   1.34039521   0.03232697
3888.00   1.41234744   0.03272791
3890.00   1.47341144   0.03328475
3892.00   1.43480945   0.03293213
3894.00   1.46531773   0.03310459
3896.00   1.50090015   0.03353314
3898.00   1.46148741   0.03300961
3900.00   1.58176351   0.03382036
3902.00   1.54657519   0.03379777
3904.00   1.55231655   0.03442023
3906.00   1.54426479   0.03520009
3908.00   1.58919632   0.03552106
3910.00   1.61310089   0.03519832
3912.00   1.66741765   0.03550115
3914.00   1.65156615   0.03469606
3916.00   1.68769681   0.03454953
3918.00   1.66197979   0.03450867
3920.00   1.68451774   0.03442065
3922.00   1.71289659   0.03415541
3924.00   1.71516669   0.03422722
3926.00   1.80856144   0.03467062
3928.00   1.72906899   0.03415377
3930.00   1.79639268   0.03457804
3932.00   1.76121628   0.03427615
3934.00   1.82257569   0.03475896
3936.00   1.84278488   0.03456760
3938.00   1.74698162   0.03414934
3940.00   1.85919178   0.03475030
3942.00   1.90532863   0.03525673
3944.00   1.91830003   0.03538056
3946.00   1.95725155   0.03535606
3948.00   1.89101160   0.03494706
3950.00   1.92596698   0.03504972
3952.00   1.93499613   0.03518007
3954.00   1.95885444   0.03517032
3956.00   2.03677988   0.03559427
3958.00   1.96829474   0.03536942
3960.00   2.01886749   0.03544133
3962.00   2.03698802   0.03545290
3964.00   2.00385714   0.03489462
3966.00   1.84052718   0.03322428
3968.00   1.70949578   0.03211126
3970.00   1.87757647   0.03337212
3972.00   2.03078604   0.03467599
3974.00   2.03507400   0.03466570
3976.00   2.00702071   0.03437098
3978.00   1.93439198   0.03400414
3980.00   2.00513339   0.03444423
3982.00   1.87661123   0.03360054
3984.00   1.89049685   0.03341810
3986.00   1.81269038   0.03290585
3988.00   1.77370787   0.03250164
3990.00   1.69447827   0.03187816
3992.00   1.73513389   0.03183325
3994.00   1.71157908   0.03177410
3996.00   1.68023455   0.03169887
3998.00   1.61300206   0.03083785
4000.00   1.50311220   0.02954434
4002.00   1.43018544   0.02851651
4004.00   1.35475624   0.02805324
4006.00   1.41765726   0.02874608
4008.00   1.44060981   0.02911745
4010.00   1.46207452   0.02938380
4012.00   1.46239054   0.02923695
4014.00   1.48377120   0.02891494
4016.00   1.44415808   0.02915025
4018.00   1.38501608   0.02931099
4020.00   1.38985503   0.02956179
4022.00   1.41496015   0.02973109
4024.00   1.39496231   0.02908644
4026.00   1.35455728   0.02870640
4028.00   1.43405998   0.02887262
4030.00   1.38208568   0.02825847
4032.00   1.42001116   0.02828739
4034.00   1.42925429   0.02836806
4036.00   1.42551255   0.02835034
4038.00   1.43001294   0.02831806
4040.00   1.43850195   0.02835579
4042.00   1.45457613   0.03049782
4044.00   1.44554436   0.03545250
4046.00   1.52477705   0.03684831
4048.00   1.41107440   0.03239352
4050.00   1.46303356   0.02939587
4052.00   1.50311673   0.02912171
4054.00   1.52972972   0.02905761
4056.00   1.52735960   0.02889204
4058.00   1.51596296   0.02884617
4060.00   1.55300689   0.02885821
4062.00   1.54872429   0.02870354
4064.00   1.57111955   0.02892270
4066.00   1.61241686   0.02908350
4068.00   1.58133399   0.02886347
4070.00   1.63016069   0.02896978
4072.00   1.68001294   0.02935820
4074.00   1.76379573   0.03035401
4076.00   1.77467299   0.03140009
4078.00   1.92108428   0.03183870
4080.00   1.83776319   0.03086988
4082.00   1.89429700   0.03090847
4084.00   1.80503833   0.03059294
4086.00   1.82692432   0.03036018
4088.00   1.82525384   0.02997385
4090.00   1.87233043   0.02994233
4092.00   1.90058005   0.03016394
4094.00   1.85781324   0.02999586
4096.00   1.90885043   0.02999769
4098.00   1.93555462   0.03013792
4100.00   1.92974389   0.02987407
4102.00   1.92031443   0.02974869
4104.00   1.91591346   0.02993600
4106.00   1.93241429   0.03005988
4108.00   1.84668243   0.02961067
4110.00   1.96118319   0.02988240
4112.00   1.97437060   0.02989738
4114.00   1.97812867   0.02977714
4116.00   1.95608926   0.02984834
4118.00   1.97110176   0.02977404
4120.00   1.94992900   0.02977746
4122.00   1.94510782   0.02976261
4124.00   1.98942924   0.02992629
4126.00   1.96061242   0.02964076
4128.00   1.98027515   0.02976676
4130.00   1.97270334   0.02986040
4132.00   1.93250322   0.02949403
4134.00   1.93824542   0.02932845
4136.00   1.93724465   0.02937318
4138.00   1.87937176   0.02902631
4140.00   1.87883902   0.02888935
4142.00   1.83516669   0.02851123
4144.00   1.81170666   0.02827621
4146.00   1.82343137   0.02805458
4148.00   1.81588566   0.02826990
4150.00   1.85206795   0.02858408
4152.00   1.87168574   0.02858588
4154.00   1.77161825   0.02804383
4156.00   1.83416200   0.02828166
4158.00   1.75292265   0.02781634
4160.00   1.82609868   0.02806628
4162.00   1.77407074   0.02791958
4164.00   1.79649293   0.02828938
4166.00   1.75638187   0.02801464
4168.00   1.81214583   0.02784045
4170.00   1.75039554   0.02741415
4172.00   1.73008835   0.02714823
4174.00   1.73638475   0.02713932
4176.00   1.78154182   0.02745390
4178.00   1.70648611   0.02690248
4180.00   1.68540573   0.02657694
4182.00   1.75097454   0.02677466
4184.00   1.65516126   0.02644107
4186.00   1.77976024   0.02678120
4188.00   1.74419832   0.02680242
4190.00   1.74650860   0.02671698
4192.00   1.77548182   0.02690938
4194.00   1.81865668   0.02698858
4196.00   1.83823061   0.02703354
4198.00   1.79289305   0.02673514
4200.00   1.78531814   0.02657736
4202.00   1.74897861   0.02649613
4204.00   1.66657388   0.02618623
4206.00   1.70777810   0.02635295
4208.00   1.70432162   0.02630041
4210.00   1.68821585   0.02601032
4212.00   1.64386249   0.02572660
4214.00   1.66902113   0.02571960
4216.00   1.68487775   0.02581649
4218.00   1.58106339   0.02520271
4220.00   1.60821795   0.02540086
4222.00   1.59907377   0.02523512
4224.00   1.54897761   0.02490475
4226.00   1.53941798   0.02489702
4228.00   1.51015151   0.02473319
4230.00   1.55179143   0.02485828
4232.00   1.49324656   0.02462485
4234.00   1.49600601   0.02454405
4236.00   1.54796839   0.02467021
4238.00   1.51870549   0.02452160
4240.00   1.46784019   0.02407744
4242.00   1.47974765   0.02431664
4244.00   1.49336171   0.02494890
4246.00   1.53510761   0.02524116
4248.00   1.43827057   0.02452699
4250.00   1.44836497   0.02411625
4252.00   1.46405542   0.02379024
4254.00   1.41794336   0.02369934
4256.00   1.41761720   0.02367378
4258.00   1.42515349   0.02368403
4260.00   1.42210984   0.02344242
4262.00   1.39947045   0.02326676
4264.00   1.37912798   0.02303241
4266.00   1.36295366   0.02304172
4268.00   1.34104586   0.02287860
4270.00   1.33151388   0.02290597
4272.00   1.37240875   0.02312295
4274.00   1.31083775   0.02271073
4276.00   1.35567451   0.02278314
4278.00   1.32612789   0.02283922
4280.00   1.34289742   0.02293597
4282.00   1.37571037   0.02297560
4284.00   1.30434978   0.02266138
4286.00   1.28632343   0.02251060
4288.00   1.28882492   0.02228039
4290.00   1.24824369   0.02214636
4292.00   1.28212631   0.02223477
4294.00   1.25418305   0.02217504
4296.00   1.24300003   0.02191119
4298.00   1.24384677   0.02190727
4300.00   1.22979271   0.02178038
4302.00   1.22225678   0.02183780
4304.00   1.18218648   0.02166352
4306.00   1.19021595   0.02167180
4308.00   1.20778656   0.02157976
4310.00   1.19193077   0.02163145
4312.00   1.15959680   0.02185568
4314.00   1.16980612   0.02207574
4316.00   1.10486829   0.02147464
4318.00   1.10642076   0.02148730
4320.00   1.09376609   0.02127898
4322.00   1.07183969   0.02100732
4324.00   1.05599797   0.02089211
4326.00   1.05488706   0.02067532
4328.00   1.03868294   0.02027904
4330.00   1.00254416   0.02024927
4332.00   0.96705091   0.01996605
4334.00   0.98202682   0.02001488
4336.00   1.00813770   0.02005881
4338.00   0.96305418   0.01991942
4340.00   0.98782766   0.02001619
4342.00   0.97349620   0.01994592
4344.00   1.01444173   0.02050647
4346.00   1.03358996   0.02071644
4348.00   1.01478267   0.02074092
4350.00   1.05504680   0.02090041
4352.00   1.05303478   0.02105909
4354.00   1.05365419   0.02514269
4356.00   1.08539116   0.03057076
4358.00   1.05375290   0.03159689
4360.00   1.09261537   0.02755231
4362.00   1.10268891   0.02355987
4364.00   1.15965271   0.02216277
4366.00   1.17301893   0.02179896
4368.00   1.15215778   0.02168092
4370.00   1.18028522   0.02197277
4372.00   1.26253140   0.02240290
4374.00   1.21758437   0.02225901
4376.00   1.24729931   0.02221059
4378.00   1.23028839   0.02189279
4380.00   1.22123981   0.02183363
4382.00   1.25677645   0.02201173
4384.00   1.26861262   0.02194513
4386.00   1.22733462   0.02167648
4388.00   1.26352549   0.02189738
4390.00   1.29203963   0.02200769
4392.00   1.29728293   0.02206572
4394.00   1.25061989   0.02191248
4396.00   1.31863022   0.02207845
4398.00   1.32493401   0.02249322
4400.00   1.28626513   0.02222177
4402.00   1.29662454   0.02226856
4404.00   1.33148789   0.02230319
4406.00   1.31731629   0.02232407
4408.00   1.38289368   0.02246183
4410.00   1.36309123   0.02260753
4412.00   1.36360490   0.02263832
4414.00   1.32132840   0.02250663
4416.00   1.32442319   0.02242025
4418.00   1.38493180   0.02242951
4420.00   1.33568406   0.02229786
4422.00   1.30098784   0.02207579
4424.00   1.29074109   0.02192358
4426.00   1.31189573   0.02193992
4428.00   1.24931908   0.02171323
4430.00   1.33303189   0.02199885
4432.00   1.30469441   0.02191579
4434.00   1.27352214   0.02179499
4436.00   1.23382199   0.02156331
4438.00   1.25092816   0.02176853
4440.00   1.26414585   0.02164928
4442.00   1.25920761   0.02170813
4444.00   1.25172019   0.02163501
4446.00   1.24722290   0.02152208
4448.00   1.25245261   0.02144214
4450.00   1.29166889   0.02167589
4452.00   1.24793363   0.02139403
4454.00   1.26136923   0.02153862
4456.00   1.25035930   0.02149370
4458.00   1.24947369   0.02147876
4460.00   1.25977921   0.02141028
4462.00   1.22825921   0.02140789
4464.00   1.24637926   0.02138416
4466.00   1.29049730   0.02160589
4468.00   1.29611003   0.02164388
4470.00   1.31737840   0.02181788
4472.00   1.31959784   0.02187615
4474.00   1.34764922   0.02193994
4476.00   1.36793351   0.02198779
4478.00   1.37923944   0.02201132
4480.00   1.39605737   0.02211650
4482.00   1.46421313   0.02233075
4484.00   1.46629333   0.02247033
4486.00   1.42732513   0.02245796
4488.00   1.45841372   0.02244008
4490.00   1.52579999   0.02274519
4492.00   1.51491773   0.02272635
4494.00   1.51885629   0.02278060
4496.00   1.54901099   0.02279011
4498.00   1.51992631   0.02275499
4500.00   1.57790244   0.02290362
4502.00   1.55195928   0.02283113
4504.00   1.56845832   0.02277313
4506.00   1.56555331   0.02294069
4508.00   1.56037569   0.02275990
4510.00   1.60087419   0.02291291
4512.00   1.55279851   0.02278499
4514.00   1.58576918   0.02286438
4516.00   1.58270073   0.02281353
4518.00   1.58135760   0.02269091
4520.00   1.60096812   0.02282548
4522.00   1.63188481   0.02291852
4524.00   1.64158452   0.02285996
4526.00   1.61178541   0.02289352
4528.00   1.59806812   0.02274544
4530.00   1.67685020   0.02301641
4532.00   1.71328199   0.02304628
4534.00   1.66005421   0.02293519
4536.00   1.67427611   0.02296036
4538.00   1.64906144   0.02282651
4540.00   1.66244829   0.02288270
4542.00   1.71106577   0.02305846
4544.00   1.69895065   0.02301920
4546.00   1.69479811   0.02289939
4548.00   1.65151763   0.02271544
4550.00   1.63885760   0.02259275
4552.00   1.65365505   0.02258284
4554.00   1.70679593   0.02287537
4556.00   1.68520224   0.02277719
4558.00   1.65424895   0.02257791
4560.00   1.65855849   0.02252653
4562.00   1.67423928   0.02271683
4564.00   1.72856987   0.02268770
4566.00   1.71520841   0.02257171
4568.00   1.66638482   0.02234287
4570.00   1.65284598   0.02225048
4572.00   1.66037738   0.02235866
4574.00   1.59503400   0.02219443
4576.00   1.58508885   0.02197112
4578.00   1.65087569   0.02203250
4580.00   1.62036860   0.02203712
4582.00   1.64092171   0.02197165
4584.00   1.60307634   0.02183529
4586.00   1.64683855   0.02197224
4588.00   1.64634132   0.02188792
4590.00   1.60482168   0.02177482
4592.00   1.59388757   0.02161413
4594.00   1.62296247   0.02189422
4596.00   1.56965232   0.02161078
4598.00   1.59479177   0.02168012
4600.00   1.58785260   0.02158581
4602.00   1.61033320   0.02158802
4604.00   1.57639909   0.02153757
4606.00   1.63069940   0.02165552
4608.00   1.60840797   0.02161479
4610.00   1.60525751   0.02166495
4612.00   1.60999978   0.02161852
4614.00   1.60817373   0.02146664
4616.00   1.63625896   0.02159997
4618.00   1.60558438   0.02145306
4620.00   1.63357210   0.02161195
4622.00   1.60350037   0.02138897
4624.00   1.63238692   0.02143411
4626.00   1.66612601   0.02164589
4628.00   1.64449108   0.02165348
4630.00   1.65256536   0.02167316
4632.00   1.62721610   0.02161433
4634.00   1.57350004   0.02132357
4636.00   1.64103949   0.02151554
4638.00   1.63785601   0.02144324
4640.00   1.66101384   0.02153243
4642.00   1.67901504   0.02151745
4644.00   1.67090988   0.02159829
4646.00   1.60519195   0.02148682
4648.00   1.65402949   0.02152253
4650.00   1.68269277   0.02160702
4652.00   1.66105926   0.02152285
4654.00   1.67828071   0.02166541
4656.00   1.61501431   0.02156608
4658.00   1.62826288   0.02149862
4660.00   1.62594521   0.02142275
4662.00   1.61423397   0.02155543
4664.00   1.53914356   0.02115613
4666.00   1.51974773   0.02107707
4668.00   1.50462234   0.02093133
4670.00   1.44936788   0.02067587
4672.00   1.49005926   0.02073231
4674.00   1.45817232   0.02060446
4676.00   1.43138981   0.02019654
4678.00   1.40789640   0.02018583
4680.00   1.40765095   0.02014140
4682.00   1.37605810   0.01987879
4684.00   1.34849620   0.01975742
4686.00   1.34643674   0.01974374
4688.00   1.35243869   0.01964039
4690.00   1.37611139   0.01969243
4692.00   1.39817715   0.01980010
4694.00   1.38055432   0.01971201
4696.00   1.36773109   0.01958052
4698.00   1.36619127   0.01962573
4700.00   1.38169742   0.01969100
4702.00   1.36931622   0.01979387
4704.00   1.38530910   0.01966430
4706.00   1.39087462   0.01974123
4708.00   1.37021279   0.01967034
4710.00   1.36787438   0.01964667
4712.00   1.37360895   0.01963217
4714.00   1.37876582   0.01960577
4716.00   1.39372885   0.01972916
4718.00   1.37092376   0.01960770
4720.00   1.39787900   0.01963720
4722.00   1.43785548   0.01987422
4724.00   1.39606607   0.01967125
4726.00   1.40118814   0.01992685
4728.00   1.43243170   0.02014692
4730.00   1.40424836   0.02010511
4732.00   1.44320822   0.02016030
4734.00   1.39524674   0.02015036
4736.00   1.43454671   0.02029636
4738.00   1.44693196   0.02045340
4740.00   1.42005897   0.02047222
4742.00   1.45186555   0.02050269
4744.00   1.40260231   0.02025080
4746.00   1.40834498   0.01998790
4748.00   1.39569938   0.01971680
4750.00   1.40474045   0.01986288
4752.00   1.46215868   0.01983092
4754.00   1.42097509   0.01969750
4756.00   1.39982474   0.01962221
4758.00   1.33872902   0.01928934
4760.00   1.32323599   0.01902891
4762.00   1.40029871   0.01926904
4764.00   1.33710647   0.01896528
4766.00   1.34119451   0.01898014
4768.00   1.31398845   0.01866497
4770.00   1.29064763   0.01855019
4772.00   1.29798234   0.01860578
4774.00   1.22550440   0.01839184
4776.00   1.25567424   0.01866053
4778.00   1.21883881   0.01881365
4780.00   1.24752235   0.01849698
4782.00   1.24373734   0.01838783
4784.00   1.19912398   0.01824246
