# File created by shivutils (I.Shivvers)
# wl(A)   flm    er(optional)
3444.00   4.60240030   0.16633554
3446.00   4.66429138   0.16908982
3448.00   5.03833628   0.17582595
3450.00   5.06809521   0.17891558
3452.00   4.94124317   0.17778403
3454.00   5.02766466   0.17961584
3456.00   4.73222542   0.17561187
3458.00   4.98438454   0.17797767
3460.00   5.19412088   0.17822927
3462.00   4.97588921   0.17979044
3464.00   4.73751974   0.17809030
3466.00   4.86683083   0.18057500
3468.00   4.92850828   0.18221067
3470.00   4.94131708   0.18319246
3472.00   5.07637835   0.18369606
3474.00   5.13326168   0.18336742
3476.00   5.53347349   0.18738642
3478.00   5.45513296   0.19186169
3480.00   5.62873983   0.19516739
3482.00   5.73100376   0.19529873
3484.00   6.02119827   0.19874929
3486.00   6.37235451   0.20354167
3488.00   6.25449514   0.20067133
3490.00   6.26320076   0.19930848
3492.00   6.48640394   0.20332806
3494.00   6.93375921   0.20754339
3496.00   6.86711407   0.20671965
3498.00   7.05865765   0.21043457
3500.00   7.20231915   0.21277401
3502.00   7.21787214   0.21453407
3504.00   7.45218277   0.21643014
3506.00   7.39302778   0.21539234
3508.00   7.61590099   0.21644513
3510.00   7.33515644   0.21217138
3512.00   7.22257376   0.21032770
3514.00   7.41493034   0.21255872
3516.00   7.29909325   0.21399094
3518.00   7.25229120   0.21543691
3520.00   7.38530970   0.21193624
3522.00   7.53108025   0.21132542
3524.00   7.57310295   0.21002744
3526.00   8.25286865   0.21710300
3528.00   7.88209152   0.21501678
3530.00   8.18229675   0.21832344
3532.00   8.24333572   0.21886273
3534.00   8.58725166   0.22233599
3536.00   8.51567936   0.22070959
3538.00   8.59999084   0.22268946
3540.00   9.16627312   0.22578031
3542.00   8.75213814   0.22213279
3544.00   8.60434818   0.22166809
3546.00   8.83499432   0.22199509
3548.00   9.15337753   0.22473983
3550.00   8.99589348   0.22356172
3552.00   9.31057167   0.22342986
3554.00   9.24588776   0.22260681
3556.00   8.98125648   0.21940050
3558.00   8.97777462   0.21706100
3560.00   9.12483597   0.21926200
3562.00   9.27305889   0.22011942
3564.00   9.38900948   0.21774882
3566.00   9.49338341   0.21609716
3568.00   9.32883930   0.21343468
3570.00   9.91699505   0.21688463
3572.00   9.68130970   0.21670499
3574.00   9.75013256   0.21696202
3576.00   9.89317417   0.21625976
3578.00   9.44246387   0.21104029
3580.00   9.73603344   0.21049409
3582.00   9.44808102   0.20696051
3584.00   9.20308399   0.20435436
3586.00   9.51966000   0.20500128
3588.00   9.72992516   0.20782708
3590.00   8.96374416   0.20328033
3592.00   9.15981960   0.20397277
3594.00   9.15280247   0.20345034
3596.00   9.07989693   0.20225362
3598.00   9.06773472   0.20199227
3600.00   9.09585762   0.20063806
3602.00   8.93415928   0.19704020
3604.00   9.23855877   0.19789098
3606.00   8.96499538   0.19355446
3608.00   8.44766140   0.18842459
3610.00   9.31979275   0.19544198
3612.00   9.05167866   0.19425674
3614.00   9.16468334   0.19439092
3616.00   9.37140465   0.19416925
3618.00   9.39918232   0.19205911
3620.00   9.52510262   0.19151431
3622.00   10.03287315   0.19574080
3624.00   10.25187874   0.19853535
3626.00   10.35268593   0.19904624
3628.00   10.56108379   0.19969967
3630.00   10.90217495   0.19984731
3632.00   11.13490677   0.19949348
3634.00   11.59368896   0.20194422
3636.00   11.39634800   0.20155394
3638.00   11.90701389   0.20396009
3640.00   12.27038097   0.20677276
3642.00   12.33744335   0.20647143
3644.00   12.51040363   0.20702054
3646.00   13.01513100   0.20962782
3648.00   13.40268421   0.21489727
3650.00   13.51129532   0.21709247
3652.00   13.33849430   0.21496987
3654.00   13.98671627   0.21620387
3656.00   14.18207836   0.21540929
3658.00   14.35020161   0.21490085
3660.00   14.79820824   0.21735281
3662.00   15.29583454   0.21983562
3664.00   15.92042065   0.22147067
3666.00   16.00959778   0.21953769
3668.00   16.46476364   0.21994416
3670.00   16.32522583   0.21910748
3672.00   16.78522301   0.22157706
3674.00   16.58675194   0.21909630
3676.00   17.05947304   0.22021554
3678.00   16.48218346   0.21619953
3680.00   16.39590645   0.21382599
3682.00   15.66754723   0.20972347
3684.00   14.83211040   0.20431025
3686.00   14.80432034   0.20331246
3688.00   14.51989365   0.20054129
3690.00   14.15103626   0.19926664
3692.00   14.09496498   0.19784173
3694.00   13.44584846   0.19314286
3696.00   13.32220173   0.19158618
3698.00   13.39063740   0.19155127
3700.00   12.74522400   0.18754718
3702.00   12.56872463   0.18460788
3704.00   12.51442432   0.18175884
3706.00   12.63581467   0.18049750
3708.00   12.47828579   0.17982174
3710.00   12.24424171   0.17879736
3712.00   12.45361042   0.18072037
3714.00   11.98822117   0.17734863
3716.00   12.08269405   0.17697836
3718.00   11.65839672   0.17179276
3720.00   11.80578518   0.17098942
3722.00   11.46594620   0.16869769
3724.00   12.07585430   0.17301974
3726.00   11.97747040   0.17239223
3728.00   11.67368317   0.17029086
3730.00   11.70739460   0.16956362
3732.00   11.57745457   0.16665643
3734.00   11.36804104   0.16328700
3736.00   11.58826351   0.16443652
3738.00   11.24850464   0.16522317
3740.00   11.03456211   0.16356787
3742.00   11.11686230   0.16298053
3744.00   11.50292301   0.16321088
3746.00   11.04479599   0.15897197
3748.00   10.58784580   0.15521140
3750.00   10.53840828   0.15533413
3752.00   10.12725067   0.15434483
3754.00   10.03191757   0.15437420
3756.00   9.89910316   0.15191346
3758.00   9.57780266   0.14845197
3760.00   9.74349976   0.14932205
3762.00   9.38020229   0.14664750
3764.00   9.28247261   0.14604476
3766.00   9.47803211   0.14678898
3768.00   9.01598930   0.14346348
3770.00   9.19420815   0.14479810
3772.00   8.95607758   0.14358544
3774.00   8.98947239   0.14352429
3776.00   9.12077427   0.14418907
3778.00   8.70597744   0.14158101
3780.00   8.96280479   0.14283840
3782.00   8.78530407   0.14168248
3784.00   8.59892654   0.13950011
3786.00   8.52599621   0.13784881
3788.00   8.23868847   0.13503952
3790.00   8.35429573   0.13580331
3792.00   8.22992897   0.13455147
3794.00   8.22987652   0.13373129
3796.00   8.34794235   0.13311690
3798.00   8.21692276   0.13180523
3800.00   8.22526073   0.13305283
3802.00   8.54073715   0.13531248
3804.00   8.59356785   0.13578421
3806.00   8.41647911   0.13357303
3808.00   8.61065006   0.13452485
3810.00   8.62380695   0.13480671
3812.00   9.04868507   0.13582474
3814.00   8.90653419   0.13329940
3816.00   9.24112701   0.13562758
3818.00   9.48863316   0.13616781
3820.00   9.10870457   0.13322683
3822.00   9.57670021   0.13585293
3824.00   9.79880428   0.13627084
3826.00   9.96541882   0.13573126
3828.00   10.17887402   0.13766588
3830.00   10.71011925   0.14003584
3832.00   10.85455704   0.14002608
3834.00   10.66148376   0.13888347
3836.00   10.86902809   0.14009100
3838.00   11.06124115   0.14028668
3840.00   11.22583008   0.14123434
3842.00   11.71053505   0.14434539
3844.00   12.02560520   0.14629149
3846.00   12.12370968   0.14628729
3848.00   12.45920277   0.14782515
3850.00   12.76643085   0.14895943
3852.00   13.07138348   0.15024531
3854.00   13.25817776   0.15039533
3856.00   13.26328087   0.14982231
3858.00   14.16505909   0.15307212
3860.00   14.08894348   0.15301810
3862.00   14.49253178   0.15572207
3864.00   14.81902409   0.15752025
3866.00   14.91810036   0.15745395
3868.00   15.27018356   0.15808408
3870.00   15.75463581   0.15955469
3872.00   16.16418839   0.16127823
3874.00   16.21966171   0.16199014
3876.00   16.73909569   0.16371319
3878.00   17.44105339   0.16596709
3880.00   18.10356903   0.16834003
3882.00   18.09321785   0.16828002
3884.00   18.64626503   0.17005949
3886.00   18.95293999   0.17091259
3888.00   19.19007874   0.17114797
3890.00   19.34668350   0.17249441
3892.00   19.66395569   0.17381044
3894.00   20.03475380   0.17492664
3896.00   20.42064095   0.17639516
3898.00   20.28247070   0.17557894
3900.00   20.42410851   0.17569466
3902.00   21.00833893   0.17768149
3904.00   21.22793770   0.17794317
3906.00   21.53458786   0.17987956
3908.00   21.78797722   0.18126294
3910.00   22.02270508   0.18206611
3912.00   22.30963516   0.18277043
3914.00   22.79605293   0.18362789
3916.00   23.18722725   0.18415336
3918.00   23.03895760   0.18233640
3920.00   23.48848152   0.18308775
3922.00   23.43153763   0.18278748
3924.00   23.68443108   0.18308629
3926.00   24.03265572   0.18356039
3928.00   24.07635880   0.18265943
3930.00   23.72322655   0.18041946
3932.00   23.38132477   0.17858678
3934.00   23.94051170   0.18042903
3936.00   25.07101440   0.18429230
3938.00   25.01393700   0.18435887
3940.00   24.93029213   0.18437608
3942.00   25.31351852   0.18573178
3944.00   25.04301262   0.18488294
3946.00   24.91424942   0.18433319
3948.00   24.64074516   0.18311001
3950.00   24.29734612   0.18174793
3952.00   24.27519608   0.18150495
3954.00   23.86878586   0.17951025
3956.00   24.17894745   0.18043366
3958.00   23.39532852   0.17770551
3960.00   22.95453072   0.17561066
3962.00   22.93587303   0.17445831
3964.00   22.19589043   0.17110227
3966.00   21.62569809   0.16751240
3968.00   21.11833191   0.16524415
3970.00   21.05064583   0.16521122
3972.00   20.42325974   0.16386977
3974.00   20.26535606   0.16342294
3976.00   20.18846512   0.16330458
3978.00   19.52195358   0.16102701
3980.00   19.45951653   0.16038135
3982.00   18.77602196   0.15774475
3984.00   18.12119675   0.15468499
3986.00   17.94859123   0.15398988
3988.00   17.83999252   0.15359917
3990.00   17.39857674   0.15191996
3992.00   17.49795914   0.15206836
3994.00   17.08960724   0.15047826
3996.00   16.77773666   0.14909866
3998.00   16.64351082   0.14846347
4000.00   16.36924934   0.14699456
4002.00   16.23608971   0.14606531
4004.00   16.05486679   0.14464936
4006.00   15.69838715   0.14300698
4008.00   16.27339363   0.14549778
4010.00   15.87327671   0.14407574
4012.00   15.63789082   0.14290021
4014.00   15.53008080   0.14183730
4016.00   15.92546272   0.14337772
4018.00   15.88452625   0.14335702
4020.00   16.02882576   0.14412999
4022.00   16.02776909   0.14412135
4024.00   16.30432510   0.14443606
4026.00   16.10292244   0.14329715
4028.00   16.01105499   0.14234498
4030.00   16.54802704   0.14339265
4032.00   16.62589455   0.14303169
4034.00   16.87070084   0.14362103
4036.00   17.04224586   0.14443617
4038.00   16.93371582   0.14414883
4040.00   16.75449371   0.14329170
4042.00   17.09599495   0.14432020
4044.00   16.74425316   0.14651144
4046.00   16.36999702   0.14752945
4048.00   16.61588860   0.14565888
4050.00   16.51129150   0.14158022
4052.00   16.52685928   0.14058216
4054.00   16.44926262   0.13993210
4056.00   16.38264847   0.13915491
4058.00   16.56927681   0.13940719
4060.00   16.61590195   0.13913186
4062.00   16.40734482   0.13780963
4064.00   16.56503487   0.13793327
4066.00   16.82039833   0.13897052
4068.00   17.02845764   0.13960676
4070.00   16.74044418   0.13837576
4072.00   17.04382896   0.13909096
4074.00   16.98011398   0.13893558
4076.00   17.02944183   0.13935959
4078.00   17.19027138   0.13976628
4080.00   16.97330475   0.13858613
4082.00   17.15110970   0.13967821
4084.00   16.84477425   0.13814524
4086.00   16.80937576   0.13735113
4088.00   16.91086197   0.13754809
4090.00   16.88528252   0.13689065
4092.00   16.78520393   0.13627292
4094.00   17.10176659   0.13677545
4096.00   17.21839714   0.13673027
4098.00   16.85015488   0.13519579
4100.00   16.86115837   0.13437364
4102.00   17.27833176   0.13557756
4104.00   16.92733002   0.13471502
4106.00   16.90647888   0.13489214
4108.00   17.10402298   0.13535656
4110.00   17.08987236   0.13489233
4112.00   17.03267097   0.13459869
4114.00   17.22962570   0.13499214
4116.00   17.30703354   0.13499802
4118.00   17.63093758   0.13547480
4120.00   17.54998016   0.13499567
4122.00   17.50320816   0.13482979
4124.00   17.75997925   0.13542797
4126.00   17.77489090   0.13533203
4128.00   18.29583549   0.13665937
4130.00   18.39185333   0.13677445
4132.00   18.55775452   0.13705856
4134.00   18.79396439   0.13744463
4136.00   19.08985710   0.13827540
4138.00   19.22073174   0.13916004
4140.00   19.14980698   0.13823700
4142.00   19.41436958   0.13831927
4144.00   19.57073593   0.13830757
4146.00   19.60118484   0.13828245
4148.00   19.74668694   0.13838708
4150.00   20.09725571   0.13955781
4152.00   19.97989082   0.13877803
4154.00   20.32070923   0.13942409
4156.00   19.92187500   0.13776015
4158.00   19.93923569   0.13772212
4160.00   20.02895927   0.13770741
4162.00   20.44082832   0.13899186
4164.00   20.05294418   0.13782042
4166.00   20.29054642   0.13802950
4168.00   20.21986198   0.13716735
4170.00   19.97208405   0.13593084
4172.00   20.04698181   0.13578576
4174.00   20.20189095   0.13587829
4176.00   19.85799026   0.13488075
4178.00   19.95908356   0.13518378
4180.00   20.12278366   0.13539167
4182.00   20.18468285   0.13510071
4184.00   20.35454369   0.13548018
4186.00   20.29161835   0.13513847
4188.00   20.38037872   0.13512926
4190.00   20.49241066   0.13538389
4192.00   20.22923660   0.13453265
4194.00   20.28213882   0.13448402
4196.00   20.35074425   0.13417087
4198.00   20.34817314   0.13380958
4200.00   20.11381340   0.13313414
4202.00   20.24187279   0.13330147
4204.00   20.21557045   0.13349137
4206.00   20.28022575   0.13358590
4208.00   20.39600182   0.13397807
4210.00   20.36033440   0.13373008
4212.00   20.38474464   0.13325901
4214.00   20.09038925   0.13217561
4216.00   20.18246078   0.13199255
4218.00   20.24843407   0.13219254
4220.00   20.34035110   0.13217929
4222.00   20.22399902   0.13149066
4224.00   19.95320320   0.12984991
4226.00   20.01102448   0.12955497
4228.00   19.61719131   0.12861998
4230.00   19.63680840   0.12893036
4232.00   19.31618118   0.12778062
4234.00   19.50119781   0.12809636
4236.00   19.14568520   0.12687801
4238.00   19.03323936   0.12637633
4240.00   18.91392326   0.12585141
4242.00   19.07248878   0.12632844
4244.00   19.12397194   0.12647210
4246.00   19.30721855   0.12704195
4248.00   19.04488754   0.12593289
4250.00   18.86787224   0.12472753
4252.00   18.82350922   0.12448467
4254.00   19.00884056   0.12475913
4256.00   18.72143936   0.12376971
4258.00   19.05245781   0.12427467
4260.00   19.03966904   0.12391566
4262.00   19.08225060   0.12404378
4264.00   18.94197464   0.12355147
4266.00   18.88661194   0.12309615
4268.00   18.97220039   0.12285321
4270.00   19.14787102   0.12282946
4272.00   19.00609970   0.12216292
4274.00   18.79399681   0.12161527
4276.00   18.83348274   0.12194978
4278.00   18.51380539   0.12073886
4280.00   18.68759727   0.12111861
4282.00   18.33116722   0.11987781
4284.00   18.26636887   0.11970060
4286.00   18.14859390   0.11880864
4288.00   17.91875267   0.11783360
4290.00   17.74967384   0.11725464
4292.00   17.89122009   0.11752367
4294.00   17.58473587   0.11666095
4296.00   17.29723167   0.11551962
4298.00   17.37616348   0.11523227
4300.00   17.36734009   0.11501244
4302.00   17.23305893   0.11449389
4304.00   16.86206436   0.11346300
4306.00   16.98360252   0.11360034
4308.00   16.81677437   0.11276028
4310.00   16.60648727   0.11234527
4312.00   16.12743950   0.11158675
4314.00   16.07852936   0.11184154
4316.00   15.78758526   0.11107092
4318.00   15.96170521   0.11158931
4320.00   15.49170303   0.11024808
4322.00   15.53565788   0.11381026
4324.00   14.63378716   0.10605978
4326.00   14.90536022   0.10695419
4328.00   14.61141777   0.10621292
4330.00   14.43498898   0.10587689
4332.00   14.37764263   0.10573352
4334.00   14.20401859   0.10513460
4336.00   14.00547218   0.10427382
4338.00   13.85121250   0.10329388
4340.00   13.71797562   0.10269377
4342.00   13.45820618   0.10177507
4344.00   13.27435970   0.10165653
4346.00   12.95307827   0.10097025
4348.00   12.82353020   0.10044330
4350.00   12.65855885   0.09955703
4352.00   12.45093536   0.09863853
4354.00   12.06778908   0.09906881
4356.00   12.02396584   0.10524765
4358.00   11.73999500   0.10752145
4360.00   11.51037312   0.10250902
4362.00   11.39058685   0.09726834
4364.00   11.27909756   0.09504782
4366.00   10.90755081   0.09316154
4368.00   11.02294159   0.09313905
4370.00   10.96523666   0.09274107
4372.00   10.70634270   0.09174230
4374.00   10.64153481   0.09155668
4376.00   10.69268227   0.09151483
4378.00   10.64832020   0.09133344
4380.00   10.36256981   0.08993922
4382.00   10.11001015   0.08840252
4384.00   10.27267647   0.08867029
4386.00   10.10858345   0.08802164
4388.00   10.14017773   0.08833204
4390.00   9.98383522   0.08780520
4392.00   9.98903942   0.08760500
4394.00   9.78869247   0.08700432
4396.00   9.92807102   0.08729935
4398.00   9.78783703   0.08695716
4400.00   9.95442486   0.08728425
4402.00   10.00417995   0.08727057
4404.00   10.03297520   0.08705864
4406.00   10.08599281   0.08715089
4408.00   10.40723705   0.08851183
4410.00   10.09813786   0.08751674
4412.00   10.09599304   0.08772613
4414.00   10.41934681   0.08869115
4416.00   10.41782761   0.08872938
4418.00   10.45508766   0.08897850
4420.00   10.59790611   0.08929043
4422.00   10.56682491   0.08890157
4424.00   10.49226475   0.08866298
4426.00   10.68093586   0.08917711
4428.00   10.60188484   0.08893941
4430.00   10.77490520   0.08945682
4432.00   10.77111435   0.08951531
4434.00   11.23712063   0.09089264
4436.00   11.06972504   0.09051675
4438.00   11.24337673   0.09098480
4440.00   11.48174667   0.09190998
4442.00   11.78753757   0.09284892
4444.00   12.09208298   0.09386028
4446.00   11.99983215   0.09362692
4448.00   12.31667805   0.09445415
4450.00   12.55029106   0.09520170
4452.00   12.50042343   0.09488405
4454.00   12.63251495   0.09508923
4456.00   12.91178608   0.09596801
4458.00   13.03304005   0.09633756
4460.00   13.20168781   0.09691224
4462.00   13.38191891   0.09744220
4464.00   13.41817856   0.09758554
4466.00   13.75423622   0.09853739
4468.00   13.91413307   0.09899542
4470.00   14.07673836   0.09947269
4472.00   14.20764923   0.09982906
4474.00   14.51057148   0.10061960
4476.00   14.73742962   0.10132050
4478.00   15.15680218   0.10230946
4480.00   15.24370480   0.10233041
4482.00   15.51196194   0.10321698
4484.00   15.71067619   0.10399257
4486.00   15.98587036   0.10477503
4488.00   16.41733742   0.10579340
4490.00   16.59187317   0.10629437
4492.00   16.67889214   0.10656855
4494.00   17.07442284   0.10768609
4496.00   17.28440475   0.10822910
4498.00   17.68338585   0.10929915
4500.00   17.80267525   0.10960066
4502.00   18.23870659   0.11067602
4504.00   18.57847023   0.11164342
4506.00   18.96120644   0.11257686
4508.00   19.21061134   0.11320469
4510.00   19.25249863   0.11327270
4512.00   19.96898270   0.11497707
4514.00   20.18042374   0.11548856
4516.00   20.33244514   0.11572741
4518.00   20.69230843   0.11658882
4520.00   21.13759041   0.11769264
4522.00   21.20019722   0.11795913
4524.00   21.37845421   0.11826402
4526.00   21.66566658   0.11859515
4528.00   21.67028046   0.11864201
4530.00   21.95360565   0.11922754
4532.00   21.93059921   0.11917798
4534.00   22.28277206   0.11994749
4536.00   22.30227661   0.12004010
4538.00   22.71388054   0.12102281
4540.00   22.90011024   0.12138876
4542.00   22.85452271   0.12123594
4544.00   23.47068596   0.12259176
4546.00   23.34975624   0.12205768
4548.00   23.61992073   0.12246068
4550.00   23.78815269   0.12280964
4552.00   23.96843910   0.12327550
4554.00   24.08744812   0.12346538
4556.00   24.22100067   0.12379624
4558.00   24.46920586   0.12429740
4560.00   24.55388832   0.12457786
4562.00   24.86379814   0.12511472
4564.00   24.80055428   0.12484293
4566.00   25.01970673   0.12534016
4568.00   25.08310318   0.12543535
4570.00   25.05820847   0.12534717
4572.00   25.32270241   0.12591864
4574.00   25.43530273   0.12611206
4576.00   25.35820580   0.12592202
4578.00   25.48728371   0.12607270
4580.00   25.66690254   0.12637167
4582.00   25.58872032   0.12602048
4584.00   25.39829063   0.12569034
4586.00   25.56612778   0.12613460
4588.00   25.64729118   0.12618372
