# File created by shivutils (I.Shivvers)
# 
# wl(A)   flm    er(optional)
3450.00   14.36716366   0.17843010
3452.00   14.36926842   0.17907239
3454.00   14.37439251   0.17952010
3456.00   14.48746967   0.18094322
3458.00   14.62364864   0.18206955
3460.00   14.38567162   0.18071301
3462.00   14.26502228   0.18063642
3464.00   14.56914616   0.18280859
3466.00   14.41503620   0.18237539
3468.00   14.49920750   0.18308295
3470.00   14.40429783   0.18300278
3472.00   14.90190792   0.18606000
3474.00   14.58679581   0.18464209
3476.00   14.54727268   0.18475701
3478.00   14.01604271   0.18270224
3480.00   13.80202198   0.18248366
3482.00   13.84484005   0.18249790
3484.00   14.04359341   0.18372516
3486.00   13.91894722   0.18300484
3488.00   13.37184811   0.17910594
3490.00   13.52225113   0.17979549
3492.00   13.32738018   0.17845868
3494.00   13.46079540   0.17928755
3496.00   13.42747688   0.17901617
3498.00   13.43745518   0.17867278
3500.00   13.30377293   0.17779201
3502.00   13.56678963   0.17926396
3504.00   13.44999790   0.17870498
3506.00   13.56209946   0.17882675
3508.00   13.55579090   0.17890400
3510.00   13.99866199   0.18168175
3512.00   13.45009327   0.17812212
3514.00   13.56473351   0.17835465
3516.00   13.62763309   0.17857058
3518.00   13.34514523   0.17667185
3520.00   13.57261753   0.17738116
3522.00   13.43933201   0.17597751
3524.00   13.55878639   0.17668918
3526.00   13.27356339   0.17436221
3528.00   13.42579079   0.17469981
3530.00   13.26739025   0.17357166
3532.00   13.32305908   0.17348005
3534.00   13.58431435   0.17461471
3536.00   13.13884449   0.17145979
3538.00   13.43952179   0.17266801
3540.00   13.46669388   0.17301327
3542.00   13.43296146   0.17321245
3544.00   13.13941097   0.17165945
3546.00   13.32957172   0.17191520
3548.00   13.09885597   0.16972321
3550.00   13.02986431   0.16878739
3552.00   13.15272236   0.16843234
3554.00   12.86613464   0.16658337
3556.00   12.88624573   0.16588081
3558.00   12.88912964   0.16524701
3560.00   12.64910984   0.16338913
3562.00   12.75255299   0.16292511
3564.00   12.67698956   0.16179511
3566.00   12.75610161   0.16159055
3568.00   12.65033531   0.16014874
3570.00   12.77798843   0.15994547
3572.00   12.53016186   0.15835108
3574.00   12.64547634   0.15840463
3576.00   12.30041981   0.15517636
3578.00   12.54364967   0.15595545
3580.00   12.65817833   0.15623346
3582.00   12.27607727   0.15329981
3584.00   12.41258049   0.15237086
3586.00   12.23276520   0.15023650
3588.00   12.41092014   0.15115120
3590.00   12.16386318   0.14986984
3592.00   12.03001022   0.14793591
3594.00   11.88416672   0.14622492
3596.00   11.87944794   0.14571822
3598.00   12.09718704   0.14620912
3600.00   11.83438778   0.14381054
3602.00   11.99064636   0.14439702
3604.00   11.88823223   0.14312001
3606.00   11.98429489   0.14278340
3608.00   11.90661716   0.14185028
3610.00   11.95278454   0.14143603
3612.00   12.23284054   0.14286432
3614.00   12.08792782   0.14189675
3616.00   12.06550694   0.14140813
3618.00   12.19352627   0.14101331
3620.00   12.32753849   0.14088623
3622.00   12.40376282   0.14071321
3624.00   12.48772717   0.14052106
3626.00   12.91529846   0.14212584
3628.00   12.77090168   0.14097054
3630.00   13.00146008   0.14228863
3632.00   13.36475849   0.14332296
3634.00   13.26957417   0.14234273
3636.00   13.35682678   0.14218904
3638.00   13.10835266   0.14027604
3640.00   13.10724258   0.13975678
3642.00   13.15236664   0.14010495
3644.00   13.32871628   0.14129537
3646.00   13.42116261   0.14095171
3648.00   13.70796299   0.14564402
3650.00   13.36525631   0.14912909
3652.00   13.82771778   0.14947660
3654.00   13.80579567   0.14588484
3656.00   13.95393181   0.14442585
3658.00   14.14339066   0.14166178
3660.00   14.32534122   0.14120078
3662.00   14.17067528   0.14232676
3664.00   14.72024345   0.14449804
3666.00   14.58926487   0.14106846
3668.00   14.51664829   0.13835973
3670.00   14.28057098   0.13652675
3672.00   14.50373745   0.13698174
3674.00   14.56667805   0.13671939
3676.00   14.28021717   0.13468878
3678.00   13.76876926   0.13174686
3680.00   13.91823387   0.13203384
3682.00   13.90553284   0.13130741
3684.00   13.84889793   0.13051759
3686.00   13.28653812   0.12746824
3688.00   13.09782887   0.12595333
3690.00   12.80128574   0.12432904
3692.00   12.64178371   0.12332036
3694.00   12.15781879   0.12046983
3696.00   11.71484280   0.11809027
3698.00   11.22869015   0.11561319
3700.00   10.87434292   0.11381309
3702.00   10.43080711   0.11096679
3704.00   9.99106503   0.10842721
3706.00   9.56177235   0.10587746
3708.00   9.32776356   0.10398206
3710.00   8.81521034   0.10110681
3712.00   8.89739799   0.10120085
3714.00   8.59220409   0.09908146
3716.00   8.47769165   0.09817083
3718.00   8.15470600   0.09625527
3720.00   7.95949650   0.09479102
3722.00   7.91367292   0.09414916
3724.00   7.88521862   0.09374581
3726.00   7.80205965   0.09313291
3728.00   7.72038174   0.09259566
3730.00   7.61046457   0.09186381
3732.00   7.55023336   0.09139742
3734.00   7.56019592   0.09099941
3736.00   7.56644058   0.09077828
3738.00   7.41294146   0.08983207
3740.00   7.62363005   0.09105168
3742.00   7.73700714   0.09140801
3744.00   7.85963726   0.09134793
3746.00   7.90308094   0.09129173
3748.00   7.93437195   0.09104951
3750.00   7.88715219   0.09067578
3752.00   7.95519304   0.09076693
3754.00   8.12246609   0.09153730
3756.00   7.98268414   0.09046662
3758.00   7.79950857   0.08918534
3760.00   8.27094460   0.09131563
3762.00   8.12339687   0.09040441
3764.00   8.14305305   0.08998524
3766.00   8.27732563   0.09054291
3768.00   8.28539371   0.09027975
3770.00   8.25315666   0.09008615
3772.00   7.82636786   0.08809815
3774.00   7.80284166   0.08764149
3776.00   7.75386000   0.08716416
3778.00   7.42176914   0.08525100
3780.00   7.34139967   0.08446096
3782.00   7.16454077   0.08349150
3784.00   7.02362013   0.08248701
3786.00   6.91031981   0.08174521
3788.00   6.98086452   0.08191305
3790.00   6.82615757   0.08105770
3792.00   6.96142769   0.08169743
3794.00   6.91024876   0.08092432
3796.00   6.90499163   0.08061540
3798.00   6.75537825   0.07973824
3800.00   6.97551680   0.08078562
3802.00   6.85159159   0.08019678
3804.00   7.13347721   0.08149523
3806.00   7.00835800   0.08046260
3808.00   6.98663664   0.08005466
3810.00   6.87959146   0.07939088
3812.00   6.79116249   0.07906175
3814.00   6.95895147   0.07968212
3816.00   6.95250988   0.07946488
3818.00   7.06092072   0.07984476
3820.00   7.26433420   0.08070521
3822.00   7.26020861   0.08053886
3824.00   7.37829590   0.08091102
3826.00   7.49938583   0.08136925
3828.00   7.53703737   0.08172689
3830.00   7.74501038   0.08289032
3832.00   8.01644135   0.08392478
3834.00   8.18010235   0.08438411
3836.00   8.39669800   0.08510273
3838.00   8.75723839   0.08654768
3840.00   9.02364445   0.08768784
3842.00   9.09880257   0.08775146
3844.00   9.42952347   0.08895217
3846.00   9.54668999   0.08925018
3848.00   10.00378704   0.09093845
3850.00   10.41250324   0.09234419
3852.00   10.49102020   0.09253351
3854.00   10.84031868   0.09378020
3856.00   11.13533878   0.09476431
3858.00   11.40842438   0.09566581
3860.00   11.74595928   0.09677734
3862.00   12.24027920   0.09862830
3864.00   12.42788410   0.09925386
3866.00   12.57678795   0.09959331
3868.00   12.84309387   0.10031251
3870.00   13.20733833   0.10145036
3872.00   13.40081120   0.10209031
3874.00   13.71638680   0.10341208
3876.00   13.88889980   0.10392778
3878.00   14.42591763   0.10526795
3880.00   14.47649479   0.10527863
3882.00   15.07068348   0.10715304
3884.00   15.37109184   0.10808822
3886.00   15.41932487   0.10802179
3888.00   15.77415276   0.10909731
3890.00   15.97997284   0.10958478
3892.00   16.09203148   0.10964811
3894.00   16.30896950   0.11033716
3896.00   16.63059998   0.11128104
3898.00   16.77347755   0.11162838
3900.00   17.01905632   0.11216924
3902.00   16.96509171   0.11184061
3904.00   17.23516464   0.11289825
3906.00   17.41767311   0.11433144
3908.00   17.37161636   0.11463534
3910.00   17.56296349   0.11522537
3912.00   17.71400833   0.11604723
3914.00   18.01606369   0.11640069
3916.00   18.05595779   0.11503573
3918.00   17.88761520   0.11348374
3920.00   18.06348419   0.11339442
3922.00   18.25671577   0.11373775
3924.00   18.14946175   0.11310183
3926.00   18.36467552   0.11344090
3928.00   18.51165199   0.11360165
3930.00   18.36824226   0.11293497
3932.00   17.72031593   0.11119483
3934.00   17.56495857   0.11053467
3936.00   18.11803627   0.11159854
3938.00   18.33077431   0.11185612
3940.00   18.57452583   0.11246620
3942.00   18.65364838   0.11285198
3944.00   19.07144737   0.11407117
3946.00   18.95745850   0.11347625
3948.00   19.08355713   0.11322900
3950.00   18.95575714   0.11259839
3952.00   18.84550858   0.11205848
3954.00   18.75770950   0.11157189
3956.00   18.68242264   0.11098895
3958.00   18.45728493   0.11019532
3960.00   18.24607658   0.10985386
3962.00   17.87347031   0.10872784
3964.00   17.52625275   0.10702635
3966.00   16.76122093   0.10428330
3968.00   15.86936760   0.10142386
3970.00   15.70660973   0.10068458
3972.00   15.24822235   0.09912518
3974.00   14.78166008   0.09764819
3976.00   14.57414818   0.09667968
3978.00   14.11149597   0.09507376
3980.00   13.66455269   0.09348848
3982.00   13.61916161   0.09316957
3984.00   13.44888878   0.09241295
3986.00   13.24572182   0.09152371
3988.00   12.79485321   0.09005785
3990.00   12.77485847   0.08986254
3992.00   12.70165920   0.08940869
3994.00   12.63478088   0.08927663
3996.00   12.79438400   0.09004843
3998.00   12.46882248   0.08875304
4000.00   12.55079365   0.08852635
4002.00   12.50758362   0.08804035
4004.00   12.40698910   0.08755620
4006.00   12.61163902   0.08805858
4008.00   12.69090748   0.08833276
4010.00   12.41099072   0.08743975
4012.00   12.23191547   0.08679506
4014.00   12.53404427   0.08750994
4016.00   12.60236168   0.08752461
4018.00   12.71788216   0.08851419
4020.00   12.74813175   0.08953495
4022.00   12.77255058   0.08991430
4024.00   12.68526268   0.08939824
4026.00   12.97849560   0.08945567
4028.00   13.07093906   0.08887099
4030.00   13.12415504   0.08880202
4032.00   13.19541740   0.08883017
4034.00   13.21205616   0.08850142
4036.00   13.20751572   0.08824735
4038.00   13.57697487   0.08923192
4040.00   13.73078823   0.08949843
4042.00   13.66829395   0.08950197
4044.00   13.84963894   0.09432741
4046.00   14.28019619   0.10142150
4048.00   14.46743870   0.10102672
4050.00   14.34312916   0.09407067
4052.00   14.49940109   0.09191208
4054.00   14.55310059   0.09187432
4056.00   14.73015785   0.09210148
4058.00   14.92360878   0.09203635
4060.00   15.18426228   0.09231833
4062.00   15.20447159   0.09212469
4064.00   15.35088825   0.09246507
4066.00   15.52727318   0.09277567
4068.00   15.77735710   0.09332231
4070.00   15.84448910   0.09324619
4072.00   15.97618866   0.09331839
4074.00   16.10934067   0.09360492
4076.00   16.14052773   0.09467267
4078.00   16.08994484   0.09500729
4080.00   16.23458290   0.09493466
4082.00   16.22316360   0.09421992
4084.00   16.29516220   0.09422820
4086.00   16.55954361   0.09461507
4088.00   16.34055901   0.09358554
4090.00   16.23682404   0.09264603
4092.00   16.28106689   0.09244359
4094.00   16.02273178   0.09155513
4096.00   15.99516201   0.09142541
4098.00   15.99743080   0.09123795
4100.00   15.95846081   0.09092369
4102.00   15.84513283   0.09035721
4104.00   15.95487595   0.09042545
4106.00   15.70533752   0.08965792
4108.00   15.81426430   0.08984452
4110.00   15.85017300   0.08975627
4112.00   15.96137905   0.08988887
4114.00   16.05509186   0.09000982
4116.00   15.92760181   0.08957981
4118.00   15.95870399   0.08940431
4120.00   15.69324493   0.08841828
4122.00   15.72600937   0.08840512
4124.00   15.57660198   0.08789913
4126.00   15.51893806   0.08761188
4128.00   15.52997589   0.08755138
4130.00   15.43976021   0.08727764
4132.00   15.38834095   0.08733238
4134.00   15.15782738   0.08658160
4136.00   15.36342907   0.08670709
4138.00   15.08270454   0.08585187
4140.00   15.02122116   0.08584078
4142.00   15.16164303   0.08584374
4144.00   15.09918785   0.08521400
4146.00   14.99320030   0.08465116
4148.00   14.90426922   0.08436894
4150.00   14.85603046   0.08434809
4152.00   14.98468208   0.08491147
4154.00   14.83825207   0.08432588
4156.00   14.92551041   0.08403262
4158.00   14.91458988   0.08369950
4160.00   14.84762955   0.08347102
4162.00   14.76090145   0.08331682
4164.00   14.87434006   0.08396932
4166.00   14.68502045   0.08349362
4168.00   14.70601177   0.08293872
4170.00   14.76325321   0.08263940
4172.00   14.67237949   0.08216027
4174.00   14.78353405   0.08209043
4176.00   14.58882523   0.08147175
4178.00   14.54540348   0.08134908
4180.00   14.64855480   0.08143088
4182.00   14.74474430   0.08141507
4184.00   14.55304337   0.08072533
4186.00   14.62900352   0.08080108
4188.00   14.46913242   0.08023641
4190.00   14.41883659   0.07997330
4192.00   14.21961403   0.07937306
4194.00   14.19191265   0.07913818
4196.00   14.05209351   0.07864044
4198.00   13.99380302   0.07829569
4200.00   13.90271282   0.07797094
4202.00   13.89983845   0.07781728
4204.00   13.95111561   0.07779818
4206.00   13.95337486   0.07788131
4208.00   13.69512177   0.07711281
4210.00   13.63168335   0.07698072
4212.00   13.53555298   0.07654189
4214.00   13.44103718   0.07611870
4216.00   13.40824699   0.07588699
4218.00   13.24519157   0.07541651
4220.00   12.97415543   0.07450522
4222.00   13.15665054   0.07485066
4224.00   13.06127930   0.07455458
4226.00   12.92538548   0.07410321
4228.00   12.97174454   0.07411991
4230.00   12.93415451   0.07403561
4232.00   12.78570080   0.07368955
4234.00   12.66994381   0.07333194
4236.00   12.71951962   0.07352866
4238.00   12.42403793   0.07263365
4240.00   12.42582798   0.07233279
4242.00   12.25606728   0.07157989
4244.00   12.29158497   0.07203359
4246.00   12.36516190   0.07306447
4248.00   12.26946449   0.07276365
4250.00   12.16829586   0.07143687
4252.00   12.16845608   0.07105660
4254.00   12.19035149   0.07096046
4256.00   12.19411469   0.07093164
4258.00   12.10074329   0.07063322
4260.00   12.15255737   0.07056075
4262.00   12.04542255   0.07007266
4264.00   12.06993675   0.07005353
4266.00   11.93102360   0.06963236
4268.00   11.84478664   0.06929538
4270.00   11.90631866   0.06947234
4272.00   11.86288738   0.06922252
4274.00   11.83833885   0.06917339
4276.00   11.76443386   0.06896977
4278.00   11.66526318   0.06870604
4280.00   11.68526077   0.06856218
4282.00   11.51090336   0.06800558
4284.00   11.45167446   0.06775763
4286.00   11.42497826   0.06751590
4288.00   11.33196259   0.06711817
4290.00   11.06989861   0.06628544
4292.00   10.87367058   0.06573616
4294.00   10.72202206   0.06530099
4296.00   10.54950047   0.06469177
4298.00   10.23986816   0.06369548
4300.00   10.20542431   0.06346479
4302.00   9.83042049   0.06233955
4304.00   9.57507324   0.06151704
4306.00   9.36542034   0.06093560
4308.00   9.05933285   0.05999432
4310.00   8.88075352   0.05941453
4312.00   8.66005039   0.05922842
4314.00   8.43330383   0.05891560
4316.00   8.18789577   0.05772825
4318.00   8.07262993   0.05713551
4320.00   7.93579245   0.05683612
4322.00   7.75556278   0.05632302
4324.00   7.78983307   0.05613055
4326.00   7.54652977   0.05518622
4328.00   7.52716446   0.05475614
4330.00   7.53651381   0.05457028
4332.00   7.64728975   0.05483278
4334.00   7.59954071   0.05469703
4336.00   7.66888666   0.05500838
4338.00   7.72539663   0.05528413
4340.00   7.66042900   0.05511146
4342.00   7.80409670   0.05551826
4344.00   7.93079567   0.05600325
4346.00   8.02719593   0.05669075
4348.00   8.14589119   0.05722975
4350.00   8.22383213   0.05712931
4352.00   8.26005363   0.05708484
4354.00   8.35533428   0.05813628
4356.00   8.56161594   0.06768017
4358.00   8.68026066   0.07437963
4360.00   8.66598797   0.07151832
4362.00   8.84467411   0.06385429
4364.00   9.06466007   0.06061195
4366.00   9.31323719   0.06033109
4368.00   9.44933414   0.06039901
4370.00   9.59901237   0.06063379
4372.00   9.75166988   0.06127194
4374.00   9.98861980   0.06206542
4376.00   9.98833084   0.06184090
4378.00   10.16507244   0.06187141
4380.00   10.26686287   0.06193762
4382.00   10.41908264   0.06225186
4384.00   10.47150230   0.06227444
4386.00   10.58712673   0.06246531
4388.00   10.71440506   0.06275406
4390.00   10.86304951   0.06315342
4392.00   10.96236706   0.06335317
4394.00   11.06335258   0.06360222
4396.00   11.38973331   0.06429502
4398.00   11.24624062   0.06410480
4400.00   11.27618313   0.06438019
4402.00   11.38328362   0.06453145
4404.00   11.29859829   0.06407184
4406.00   11.35288239   0.06410180
4408.00   11.41031742   0.06419975
4410.00   11.31270123   0.06391183
4412.00   11.27049160   0.06384771
4414.00   11.23897743   0.06386589
4416.00   11.23915577   0.06387189
4418.00   11.35829830   0.06420552
4420.00   11.26023579   0.06407329
4422.00   11.22132587   0.06340089
4424.00   11.24878311   0.06341603
4426.00   11.29954147   0.06348744
4428.00   11.22929955   0.06323309
4430.00   11.24049950   0.06324007
4432.00   11.24918079   0.06321103
4434.00   11.27074814   0.06319325
4436.00   11.32704449   0.06328295
4438.00   11.28162098   0.06321132
4440.00   11.33740520   0.06329814
4442.00   11.46247864   0.06353122
4444.00   11.42558289   0.06339570
4446.00   11.62943649   0.06384005
4448.00   11.82486534   0.06429270
4450.00   11.73908043   0.06402106
4452.00   12.06340981   0.06480753
4454.00   12.14429665   0.06496826
4456.00   12.11036587   0.06483350
4458.00   12.41916561   0.06553052
4460.00   12.48204327   0.06569460
4462.00   12.45148563   0.06555969
4464.00   12.57987499   0.06584544
4466.00   12.79203320   0.06625432
4468.00   12.78308868   0.06616921
4470.00   13.00261021   0.06669111
4472.00   13.14012909   0.06698888
4474.00   13.06226921   0.06677724
4476.00   13.23496437   0.06715541
4478.00   13.37019348   0.06741381
4480.00   13.44917011   0.06756584
4482.00   13.38292313   0.06736010
4484.00   13.50911999   0.06767732
4486.00   13.50625134   0.06763443
4488.00   13.44957447   0.06750899
4490.00   13.68156147   0.06798149
4492.00   13.69497013   0.06804262
4494.00   13.64681530   0.06799195
4496.00   13.70108128   0.06802773
4498.00   13.70926666   0.06804386
4500.00   13.68577480   0.06794438
4502.00   13.58139324   0.06760448
4504.00   13.50970936   0.06736536
4506.00   13.42592430   0.06710277
4508.00   13.45507431   0.06707285
4510.00   13.51362610   0.06718141
4512.00   13.46897888   0.06701516
4514.00   13.51232624   0.06709128
4516.00   13.47825432   0.06689362
4518.00   13.42423725   0.06674018
4520.00   13.50822067   0.06696206
4522.00   13.53278542   0.06695717
4524.00   13.64589500   0.06714240
4526.00   13.56226921   0.06691112
4528.00   13.67265987   0.06713308
4530.00   13.66127491   0.06710970
4532.00   13.55225468   0.06679136
4534.00   13.67946339   0.06703471
4536.00   13.68538666   0.06697887
4538.00   13.55902767   0.06664663
4540.00   13.66740036   0.06690417
4542.00   13.68995190   0.06698992
4544.00   13.64094925   0.06686187
4546.00   13.71406460   0.06693508
4548.00   13.58381462   0.06659229
4550.00   13.59170341   0.06650179
4552.00   13.55434799   0.06634638
4554.00   13.53392601   0.06631665
4556.00   13.53704071   0.06628591
4558.00   13.51090050   0.06623470
4560.00   13.30570793   0.06561898
4562.00   13.27698708   0.06554731
4564.00   13.15846348   0.06512951
4566.00   13.11821938   0.06498244
4568.00   13.04547310   0.06482570
4570.00   13.07794952   0.06487505
4572.00   13.12442112   0.06500110
4574.00   13.02334023   0.06476378
4576.00   12.96753216   0.06461872
4578.00   12.85450745   0.06425114
4580.00   12.90743828   0.06431149
4582.00   12.87299061   0.06415495
4584.00   12.73589993   0.06378490
4586.00   12.81897640   0.06394751
4588.00   12.78748322   0.06389175
4590.00   12.72144222   0.06372908
4592.00   12.73453712   0.06370183
